»»»»»»»»»»»»»»»»»»»»»»»»»»»»»»»»»»»» Hysteresis ««««««««««««««««««««««««««««««««««««
»»»  Executed Version:	5.9.3
»»»  Vision Version:	5.9.8 (R)
»»»  Vision Compiled:	3/30/16
»»»  Driver Version:	5.9.8
»»»  Windows Version:	Windows 7
»»»  Processor Information:	x86 (AMD or Intel) - 2 Processors
»»»  Tester Name:	PMF0910-256
»»»  Tester S/N:	PMF0910-256
»»»  Internal Amp Type:	 RTI 100V      
»»»  Internal Amp S/N:	 iAB1-0000     
»»»  Execution Count:	1
»»»»»»»»»»»»»»»»»»»»»»»»»»»»»»»»»»»»»»»»»»««««««««««««««««««««««««««««««««««««««««««

Stored:	11/14/2016 - 15:6:35
Configured:	11/14/16 02:58:19 PM
Executed:	11/14/16 03:05:20 PM

»»»»»»»»»»»»»»»»»»»»»»»»»»»»»»»»»»» Sample Info ««««««««««««««««««««««««««««««««««««
Sample Name:	
Lot Name:	
Wafer Name:	
Die Row/Column:	0/0
Capacitor Number:	0
Sample Area (cm2):	4.91e-006
Sample Thickness (µm):	1.75e-001

Mux Loop Adjustment:	Disabled

Amplifier:	Internal

»»»»»»»»»»»»»»»»»»»»»»»»»»»»»»»»»»» Tester Info «««««««««««««««««««««««««««««««««««
Tester Name:	PMF0910-256
Tester Serial Number:	PMF0910-256
Return Signal Amp. Level:	16.67 [Index: 1]

»»»»»»»»»»»»»»»»»»»»»»»»»»»»»»»» Hysteresis Info ««««««««««««««««««««««««««««««««««
Task Name:	Hyst-1
Volts:	2.50
Field:	142.86 (kV/cm)
Hysteresis Period (ms):	2.00e+000
Preset:	Enabled
Preset Delay (ms):	1.00e+003
Profile:	Double Bipolar

»»»»»»»»»»»»»»»»»»»»»»»»»»»»»»»»»»»»»» Data «««««««««««««««««««««««««««««««««««««««
Points:	2001

Valid Data

Point	Time (ms)	Drive Voltage	Measured Polarization
   1	1.0000e-003	-0.0035	-38.955163
   2	2.0000e-003	0.0058	-38.935696
   3	3.0000e-003	0.0171	-38.906031
   4	4.0000e-003	0.0248	-38.841139
   5	5.0000e-003	0.0361	-38.807765
   6	6.0000e-003	0.0463	-38.796641
   7	7.0000e-003	0.0553	-38.802203
   8	8.0000e-003	0.0684	-38.792006
   9	9.0000e-003	0.0800	-38.745655
  10	1.0000e-002	0.0867	-38.729895
  11	1.1000e-002	0.0961	-38.667784
  12	1.2000e-002	0.1063	-38.630703
  13	1.3000e-002	0.1164	-38.607527
  14	1.4000e-002	0.1270	-38.571373
  15	1.5000e-002	0.1369	-38.546343
  16	1.6000e-002	0.1465	-38.450859
  17	1.7000e-002	0.1559	-38.381332
  18	1.8000e-002	0.1676	-38.371135
  19	1.9000e-002	0.1772	-38.283994
  20	2.0000e-002	0.1887	-38.210759
  21	2.1000e-002	0.1975	-38.113421
  22	2.2000e-002	0.2050	-37.992907
  23	2.3000e-002	0.2146	-37.880736
  24	2.4000e-002	0.2281	-37.783398
  25	2.5000e-002	0.2345	-37.699038
  26	2.6000e-002	0.2483	-37.570181
  27	2.7000e-002	0.2591	-37.432054
  28	2.8000e-002	0.2673	-37.280948
  29	2.9000e-002	0.2765	-37.132623
  30	3.0000e-002	0.2873	-36.982445
  31	3.1000e-002	0.2966	-36.789623
  32	3.2000e-002	0.3059	-36.647787
  33	3.3000e-002	0.3179	-36.478141
  34	3.4000e-002	0.3239	-36.247310
  35	3.5000e-002	0.3364	-36.073956
  36	3.6000e-002	0.3481	-35.914507
  37	3.7000e-002	0.3562	-35.687385
  38	3.8000e-002	0.3677	-35.494563
  39	3.9000e-002	0.3765	-35.246119
  40	4.0000e-002	0.3864	-34.977280
  41	4.1000e-002	0.3970	-34.759428
  42	4.2000e-002	0.4064	-34.528598
  43	4.3000e-002	0.4166	-34.275519
  44	4.4000e-002	0.4272	-34.033564
  45	4.5000e-002	0.4368	-33.754529
  46	4.6000e-002	0.4483	-33.480128
  47	4.7000e-002	0.4580	-33.164011
  48	4.8000e-002	0.4675	-32.876632
  49	4.9000e-002	0.4776	-32.583691
  50	5.0000e-002	0.4877	-32.266647
  51	5.1000e-002	0.4984	-31.931989
  52	5.2000e-002	0.5062	-31.606602
  53	5.3000e-002	0.5166	-31.258966
  54	5.4000e-002	0.5267	-30.943776
  55	5.5000e-002	0.5380	-30.576672
  56	5.6000e-002	0.5468	-30.203079
  57	5.7000e-002	0.5565	-29.814654
  58	5.8000e-002	0.5663	-29.399345
  59	5.9000e-002	0.5776	-28.987744
  60	6.0000e-002	0.5851	-28.559456
  61	6.1000e-002	0.5956	-28.164542
  62	6.2000e-002	0.6103	-27.722349
  63	6.3000e-002	0.6141	-27.276448
  64	6.4000e-002	0.6279	-26.814787
  65	6.5000e-002	0.6352	-26.333659
  66	6.6000e-002	0.6469	-25.868290
  67	6.7000e-002	0.6576	-25.390870
  68	6.8000e-002	0.6666	-24.904180
  69	6.9000e-002	0.6776	-24.400803
  70	7.0000e-002	0.6867	-23.855709
  71	7.1000e-002	0.6967	-23.356968
  72	7.2000e-002	0.7039	-22.837831
  73	7.3000e-002	0.7188	-22.304789
  74	7.4000e-002	0.7272	-21.761550
  75	7.5000e-002	0.7384	-21.185865
  76	7.6000e-002	0.7474	-20.571244
  77	7.7000e-002	0.7559	-20.005757
  78	7.8000e-002	0.7647	-19.430071
  79	7.9000e-002	0.7784	-18.869219
  80	8.0000e-002	0.7869	-18.262014
  81	8.1000e-002	0.7970	-17.630707
  82	8.2000e-002	0.8060	-17.032773
  83	8.3000e-002	0.8161	-16.400539
  84	8.4000e-002	0.8244	-15.755327
  85	8.5000e-002	0.8369	-15.161101
  86	8.6000e-002	0.8495	-14.504764
  87	8.7000e-002	0.8560	-13.869749
  88	8.8000e-002	0.8651	-13.204142
  89	8.9000e-002	0.8755	-12.542243
  90	9.0000e-002	0.8863	-11.903520
  91	9.1000e-002	0.8990	-11.249964
  92	9.2000e-002	0.9048	-10.580649
  93	9.3000e-002	0.9171	-9.923386
  94	9.4000e-002	0.9286	-9.228114
  95	9.5000e-002	0.9367	-8.558798
  96	9.6000e-002	0.9483	-7.924710
  97	9.7000e-002	0.9569	-7.266519
  98	9.8000e-002	0.9674	-6.587007
  99	9.9000e-002	0.9760	-5.932524
 100	1.0000e-001	0.9877	-5.263209
 101	1.0100e-001	0.9966	-4.605018
 102	1.0200e-001	1.0067	-3.948681
 103	1.0300e-001	1.0160	-3.265461
 104	1.0400e-001	1.0255	-2.613759
 105	1.0500e-001	1.0381	-1.970401
 106	1.0600e-001	1.0475	-1.305721
 107	1.0700e-001	1.0572	-0.648457
 108	1.0800e-001	1.0669	0.001391
 109	1.0900e-001	1.0780	0.660508
 110	1.1000e-001	1.0858	1.289961
 111	1.1100e-001	1.0986	1.956495
 112	1.1200e-001	1.1062	2.604489
 113	1.1300e-001	1.1166	3.260826
 114	1.1400e-001	1.1272	3.891206
 115	1.1500e-001	1.1373	4.516950
 116	1.1600e-001	1.1453	5.151038
 117	1.1700e-001	1.1562	5.806448
 118	1.1800e-001	1.1694	6.447026
 119	1.1900e-001	1.1756	7.102435
 120	1.2000e-001	1.1869	7.739304
 121	1.2100e-001	1.1967	8.396568
 122	1.2200e-001	1.2083	9.061248
 123	1.2300e-001	1.2155	9.714804
 124	1.2400e-001	1.2292	10.349819
 125	1.2500e-001	1.2341	11.004302
 126	1.2600e-001	1.2475	11.653222
 127	1.2700e-001	1.2583	12.316975
 128	1.2800e-001	1.2664	12.980728
 129	1.2900e-001	1.2737	13.628722
 130	1.3000e-001	1.2878	14.294329
 131	1.3100e-001	1.2964	14.974768
 132	1.3200e-001	1.3066	15.606075
 133	1.3300e-001	1.3156	16.277245
 134	1.3400e-001	1.3261	16.953976
 135	1.3500e-001	1.3335	17.644613
 136	1.3600e-001	1.3467	18.354717
 137	1.3700e-001	1.3554	19.050916
 138	1.3800e-001	1.3680	19.764729
 139	1.3900e-001	1.3773	20.486885
 140	1.4000e-001	1.3872	21.210895
 141	1.4100e-001	1.3983	21.933978
 142	1.4200e-001	1.4081	22.692288
 143	1.4300e-001	1.4159	23.456160
 144	1.4400e-001	1.4281	24.235791
 145	1.4500e-001	1.4361	25.008007
 146	1.4600e-001	1.4426	25.820085
 147	1.4700e-001	1.4571	26.641433
 148	1.4800e-001	1.4680	27.507278
 149	1.4900e-001	1.4747	28.349948
 150	1.5000e-001	1.4866	29.238969
 151	1.5100e-001	1.4957	30.121501
 152	1.5200e-001	1.5063	31.040187
 153	1.5300e-001	1.5173	31.979267
 154	1.5400e-001	1.5282	32.952648
 155	1.5500e-001	1.5369	33.929737
 156	1.5600e-001	1.5467	34.904045
 157	1.5700e-001	1.5560	35.956223
 158	1.5800e-001	1.5678	36.959269
 159	1.5900e-001	1.5798	38.007739
 160	1.6000e-001	1.5884	39.050647
 161	1.6100e-001	1.5974	40.090774
 162	1.6200e-001	1.6091	41.113287
 163	1.6300e-001	1.6158	42.141363
 164	1.6400e-001	1.6263	43.129576
 165	1.6500e-001	1.6373	44.117790
 166	1.6600e-001	1.6457	45.030913
 167	1.6700e-001	1.6557	45.877291
 168	1.6800e-001	1.6664	46.673609
 169	1.6900e-001	1.6754	47.393911
 170	1.7000e-001	1.6876	48.027072
 171	1.7100e-001	1.6976	48.599049
 172	1.7200e-001	1.7057	49.097791
 173	1.7300e-001	1.7152	49.539984
 174	1.7400e-001	1.7272	49.898744
 175	1.7500e-001	1.7384	50.209299
 176	1.7600e-001	1.7489	50.492043
 177	1.7700e-001	1.7583	50.688573
 178	1.7800e-001	1.7684	50.906425
 179	1.7900e-001	1.7767	51.086269
 180	1.8000e-001	1.7876	51.241083
 181	1.8100e-001	1.7995	51.364378
 182	1.8200e-001	1.8053	51.517338
 183	1.8300e-001	1.8169	51.645268
 184	1.8400e-001	1.8263	51.774125
 185	1.8500e-001	1.8382	51.861266
 186	1.8600e-001	1.8462	51.963239
 187	1.8700e-001	1.8574	52.054088
 188	1.8800e-001	1.8679	52.136593
 189	1.8900e-001	1.8775	52.224661
 190	1.9000e-001	1.8872	52.319218
 191	1.9100e-001	1.8980	52.396161
 192	1.9200e-001	1.9081	52.468470
 193	1.9300e-001	1.9169	52.548194
 194	1.9400e-001	1.9267	52.624211
 195	1.9500e-001	1.9370	52.681687
 196	1.9600e-001	1.9492	52.741943
 197	1.9700e-001	1.9556	52.807763
 198	1.9800e-001	1.9680	52.869873
 199	1.9900e-001	1.9740	52.926422
 200	2.0000e-001	1.9857	52.965357
 201	2.0100e-001	1.9963	53.039520
 202	2.0200e-001	2.0061	53.133150
 203	2.0300e-001	2.0154	53.173939
 204	2.0400e-001	2.0265	53.230488
 205	2.0500e-001	2.0386	53.240685
 206	2.0600e-001	2.0464	53.317629
 207	2.0700e-001	2.0563	53.375104
 208	2.0800e-001	2.0657	53.422383
 209	2.0900e-001	2.0772	53.481713
 210	2.1000e-001	2.0865	53.479859
 211	2.1100e-001	2.0968	53.568854
 212	2.1200e-001	2.1066	53.613351
 213	2.1300e-001	2.1176	53.633746
 214	2.1400e-001	2.1266	53.690294
 215	2.1500e-001	2.1391	53.755186
 216	2.1600e-001	2.1466	53.774654
 217	2.1700e-001	2.1552	53.809881
 218	2.1800e-001	2.1665	53.861795
 219	2.1900e-001	2.1774	53.904438
 220	2.2000e-001	2.1870	54.002703
 221	2.2100e-001	2.1946	54.011047
 222	2.2200e-001	2.2077	54.050909
 223	2.2300e-001	2.2170	54.089844
 224	2.2400e-001	2.2270	54.101895
 225	2.2500e-001	2.2391	54.148247
 226	2.2600e-001	2.2486	54.183474
 227	2.2700e-001	2.2563	54.214993
 228	2.2800e-001	2.2690	54.239096
 229	2.2900e-001	2.2803	54.292863
 230	2.3000e-001	2.2869	54.340142
 231	2.3100e-001	2.2971	54.379077
 232	2.3200e-001	2.3079	54.408742
 233	2.3300e-001	2.3185	54.445823
 234	2.3400e-001	2.3271	54.483832
 235	2.3500e-001	2.3392	54.506080
 236	2.3600e-001	2.3466	54.553359
 237	2.3700e-001	2.3554	54.627521
 238	2.3800e-001	2.3680	54.639572
 239	2.3900e-001	2.3779	54.684070
 240	2.4000e-001	2.3880	54.711881
 241	2.4100e-001	2.3958	54.722078
 242	2.4200e-001	2.4083	54.765648
 243	2.4300e-001	2.4184	54.809219
 244	2.4400e-001	2.4271	54.814781
 245	2.4500e-001	2.4384	54.860205
 246	2.4600e-001	2.4463	54.881527
 247	2.4700e-001	2.4585	54.935295
 248	2.4800e-001	2.4681	54.968668
 249	2.4900e-001	2.4770	54.993698
 250	2.5000e-001	2.4863	55.050246
 251	2.5100e-001	2.4979	55.085474
 252	2.5200e-001	2.4882	55.084547
 253	2.5300e-001	2.4757	55.043757
 254	2.5400e-001	2.4699	55.042830
 255	2.5500e-001	2.4585	55.054882
 256	2.5600e-001	2.4466	55.046538
 257	2.5700e-001	2.4364	55.017800
 258	2.5800e-001	2.4270	54.998333
 259	2.5900e-001	2.4194	54.963106
 260	2.6000e-001	2.4089	54.973303
 261	2.6100e-001	2.3962	54.945492
 262	2.6200e-001	2.3860	54.943638
 263	2.6300e-001	2.3777	54.930660
 264	2.6400e-001	2.3670	54.923243
 265	2.6500e-001	2.3565	54.914900
 266	2.6600e-001	2.3479	54.924170
 267	2.6700e-001	2.3364	54.889870
 268	2.6800e-001	2.3298	54.884308
 269	2.6900e-001	2.3140	54.871330
 270	2.7000e-001	2.3078	54.846300
 271	2.7100e-001	2.2954	54.812000
 272	2.7200e-001	2.2894	54.805511
 273	2.7300e-001	2.2769	54.781408
 274	2.7400e-001	2.2660	54.788824
 275	2.7500e-001	2.2563	54.777700
 276	2.7600e-001	2.2472	54.747108
 277	2.7700e-001	2.2375	54.727640
 278	2.7800e-001	2.2267	54.714662
 279	2.7900e-001	2.2144	54.713735
 280	2.8000e-001	2.2067	54.676654
 281	2.8100e-001	2.1949	54.653478
 282	2.8200e-001	2.1867	54.643281
 283	2.8300e-001	2.1766	54.649770
 284	2.8400e-001	2.1671	54.624740
 285	2.8500e-001	2.1573	54.599710
 286	2.8600e-001	2.1481	54.609908
 287	2.8700e-001	2.1404	54.560775
 288	2.8800e-001	2.1276	54.539453
 289	2.8900e-001	2.1178	54.506080
 290	2.9000e-001	2.1095	54.498664
 291	2.9100e-001	2.0986	54.499591
 292	2.9200e-001	2.0872	54.494029
 293	2.9300e-001	2.0764	54.459729
 294	2.9400e-001	2.0650	54.478269
 295	2.9500e-001	2.0560	54.424502
 296	2.9600e-001	2.0483	54.410596
 297	2.9700e-001	2.0366	54.395764
 298	2.9800e-001	2.0260	54.378150
 299	2.9900e-001	2.0156	54.360537
 300	3.0000e-001	2.0075	54.316039
 301	3.0100e-001	1.9977	54.322528
 302	3.0200e-001	1.9846	54.291936
 303	3.0300e-001	1.9762	54.265980
 304	3.0400e-001	1.9658	54.310477
 305	3.0500e-001	1.9588	54.251147
 306	3.0600e-001	1.9478	54.209431
 307	3.0700e-001	1.9364	54.185328
 308	3.0800e-001	1.9266	54.167715
 309	3.0900e-001	1.9175	54.159371
 310	3.1000e-001	1.9054	54.166788
 311	3.1100e-001	1.8937	54.142685
 312	3.1200e-001	1.8863	54.111166
 313	3.1300e-001	1.8766	54.083355
 314	3.1400e-001	1.8659	54.062033
 315	3.1500e-001	1.8586	54.024025
 316	3.1600e-001	1.8496	54.013828
 317	3.1700e-001	1.8361	53.989725
 318	3.1800e-001	1.8262	53.969330
 319	3.1900e-001	1.8161	53.957279
 320	3.2000e-001	1.8041	53.927614
 321	3.2100e-001	1.7970	53.919271
 322	3.2200e-001	1.7870	53.913708
 323	3.2300e-001	1.7731	53.901657
 324	3.2400e-001	1.7677	53.871992
 325	3.2500e-001	1.7544	53.819152
 326	3.2600e-001	1.7458	53.807100
 327	3.2700e-001	1.7356	53.795976
 328	3.2800e-001	1.7279	53.766311
 329	3.2900e-001	1.7181	53.778362
 330	3.3000e-001	1.7082	53.738500
 331	3.3100e-001	1.6981	53.692148
 332	3.3200e-001	1.6866	53.687513
 333	3.3300e-001	1.6780	53.659702
 334	3.3400e-001	1.6668	53.648578
 335	3.3500e-001	1.6539	53.613351
 336	3.3600e-001	1.6470	53.593883
 337	3.3700e-001	1.6375	53.579051
 338	3.3800e-001	1.6261	53.567000
 339	3.3900e-001	1.6168	53.521575
 340	3.4000e-001	1.6051	53.551240
 341	3.4100e-001	1.5989	53.490983
 342	3.4200e-001	1.5878	53.467807
 343	3.4300e-001	1.5759	53.429799
 344	3.4400e-001	1.5674	53.405696
 345	3.4500e-001	1.5579	53.399207
 346	3.4600e-001	1.5467	53.374177
 347	3.4700e-001	1.5368	53.351929
 348	3.4800e-001	1.5285	53.329680
 349	3.4900e-001	1.5174	53.299088
 350	3.5000e-001	1.5069	53.254591
 351	3.5100e-001	1.4977	53.256445
 352	3.5200e-001	1.4870	53.231415
 353	3.5300e-001	1.4745	53.186917
 354	3.5400e-001	1.4688	53.176720
 355	3.5500e-001	1.4568	53.154471
 356	3.5600e-001	1.4474	53.131296
 357	3.5700e-001	1.4371	53.092361
 358	3.5800e-001	1.4259	53.119244
 359	3.5900e-001	1.4151	53.081236
 360	3.6000e-001	1.4055	53.036739
 361	3.6100e-001	1.3955	52.992241
 362	3.6200e-001	1.3882	52.997804
 363	3.6300e-001	1.3750	52.964430
 364	3.6400e-001	1.3683	52.944963
 365	3.6500e-001	1.3562	52.929203
 366	3.6600e-001	1.3480	52.880998
 367	3.6700e-001	1.3376	52.846698
 368	3.6800e-001	1.3262	52.820741
 369	3.6900e-001	1.3137	52.795711
 370	3.7000e-001	1.3058	52.761411
 371	3.7100e-001	1.2965	52.753068
 372	3.7200e-001	1.2867	52.718768
 373	3.7300e-001	1.2770	52.715060
 374	3.7400e-001	1.2686	52.669635
 375	3.7500e-001	1.2560	52.663146
 376	3.7600e-001	1.2471	52.656657
 377	3.7700e-001	1.2346	52.598254
 378	3.7800e-001	1.2283	52.577859
 379	3.7900e-001	1.2154	52.532435
 380	3.8000e-001	1.2076	52.497208
 381	3.8100e-001	1.1964	52.486083
 382	3.8200e-001	1.1893	52.458272
 383	3.8300e-001	1.1782	52.453637
 384	3.8400e-001	1.1673	52.409140
 385	3.8500e-001	1.1579	52.358153
 386	3.8600e-001	1.1486	52.332196
 387	3.8700e-001	1.1390	52.307167
 388	3.8800e-001	1.1261	52.274721
 389	3.8900e-001	1.1195	52.245983
 390	3.9000e-001	1.1066	52.219099
 391	3.9100e-001	1.0976	52.228369
 392	3.9200e-001	1.0872	52.190361
 393	3.9300e-001	1.0760	52.140301
 394	3.9400e-001	1.0658	52.162550
 395	3.9500e-001	1.0565	52.099512
 396	3.9600e-001	1.0505	52.068920
 397	3.9700e-001	1.0358	51.996612
 398	3.9800e-001	1.0246	51.977144
 399	3.9900e-001	1.0172	51.943771
 400	4.0000e-001	1.0083	51.922449
 401	4.0100e-001	0.9985	51.902055
 402	4.0200e-001	0.9874	51.884441
 403	4.0300e-001	0.9789	51.839017
 404	4.0400e-001	0.9685	51.801936
 405	4.0500e-001	0.9575	51.777833
 406	4.0600e-001	0.9442	51.733336
 407	4.0700e-001	0.9371	51.705525
 408	4.0800e-001	0.9281	51.661027
 409	4.0900e-001	0.9173	51.642487
 410	4.1000e-001	0.9084	51.619311
 411	4.1100e-001	0.8991	51.564616
 412	4.1200e-001	0.8871	51.560908
 413	4.1300e-001	0.8766	51.498797
 414	4.1400e-001	0.8671	51.458008
 415	4.1500e-001	0.8548	51.409802
 416	4.1600e-001	0.8470	51.386627
 417	4.1700e-001	0.8376	51.373648
 418	4.1800e-001	0.8270	51.320807
 419	4.1900e-001	0.8164	51.299486
 420	4.2000e-001	0.8061	51.270748
 421	4.2100e-001	0.7955	51.214199
 422	4.2200e-001	0.7879	51.200294
 423	4.2300e-001	0.7752	51.135402
 424	4.2400e-001	0.7657	51.099247
 425	4.2500e-001	0.7558	51.070510
 426	4.2600e-001	0.7466	51.014888
 427	4.2700e-001	0.7385	51.005617
 428	4.2800e-001	0.7281	50.958339
 429	4.2900e-001	0.7159	50.899936
 430	4.3000e-001	0.7043	50.895301
 431	4.3100e-001	0.6976	50.824847
 432	4.3200e-001	0.6860	50.789620
 433	4.3300e-001	0.6788	50.733071
 434	4.3400e-001	0.6683	50.704333
 435	4.3500e-001	0.6570	50.664471
 436	4.3600e-001	0.6470	50.625535
 437	4.3700e-001	0.6384	50.581038
 438	4.3800e-001	0.6246	50.543957
 439	4.3900e-001	0.6166	50.471649
 440	4.4000e-001	0.6049	50.421589
 441	4.4100e-001	0.5986	50.394705
 442	4.4200e-001	0.5880	50.338156
 443	4.4300e-001	0.5755	50.299221
 444	4.4400e-001	0.5646	50.230621
 445	4.4500e-001	0.5575	50.184269
 446	4.4600e-001	0.5483	50.142553
 447	4.4700e-001	0.5383	50.079515
 448	4.4800e-001	0.5258	50.031310
 449	4.4900e-001	0.5161	49.988666
 450	4.5000e-001	0.5042	49.895036
 451	4.5100e-001	0.4970	49.851466
 452	4.5200e-001	0.4848	49.807896
 453	4.5300e-001	0.4769	49.729098
 454	4.5400e-001	0.4671	49.662352
 455	4.5500e-001	0.4542	49.616928
 456	4.5600e-001	0.4458	49.526079
 457	4.5700e-001	0.4352	49.450062
 458	4.5800e-001	0.4253	49.394440
 459	4.5900e-001	0.4158	49.290613
 460	4.6000e-001	0.4046	49.226648
 461	4.6100e-001	0.3980	49.127456
 462	4.6200e-001	0.3857	49.043096
 463	4.6300e-001	0.3770	48.983766
 464	4.6400e-001	0.3664	48.855836
 465	4.6500e-001	0.3574	48.789090
 466	4.6600e-001	0.3461	48.676920
 467	4.6700e-001	0.3354	48.563822
 468	4.6800e-001	0.3262	48.432184
 469	4.6900e-001	0.3174	48.316305
 470	4.7000e-001	0.3062	48.190229
 471	4.7100e-001	0.2975	48.062299
 472	4.7200e-001	0.2859	47.900996
 473	4.7300e-001	0.2747	47.759161
 474	4.7400e-001	0.2692	47.593222
 475	4.7500e-001	0.2564	47.409671
 476	4.7600e-001	0.2450	47.211286
 477	4.7700e-001	0.2373	47.021245
 478	4.7800e-001	0.2264	46.798758
 479	4.7900e-001	0.2145	46.572563
 480	4.8000e-001	0.2068	46.351930
 481	4.8100e-001	0.1949	46.118319
 482	4.8200e-001	0.1871	45.823523
 483	4.8300e-001	0.1765	45.545415
 484	4.8400e-001	0.1676	45.223736
 485	4.8500e-001	0.1543	44.916889
 486	4.8600e-001	0.1481	44.556274
 487	4.8700e-001	0.1347	44.191952
 488	4.8800e-001	0.1244	43.814651
 489	4.8900e-001	0.1138	43.409539
 490	4.9000e-001	0.1060	42.993303
 491	4.9100e-001	0.0993	42.573359
 492	4.9200e-001	0.0866	42.082033
 493	4.9300e-001	0.0761	41.604613
 494	4.9400e-001	0.0661	41.069717
 495	4.9500e-001	0.0556	40.520916
 496	4.9600e-001	0.0464	39.935033
 497	4.9700e-001	0.0349	39.353786
 498	4.9800e-001	0.0258	38.734530
 499	4.9900e-001	0.0154	38.114348
 500	5.0000e-001	0.0069	37.441324
 501	5.0100e-001	-0.0027	36.736782
 502	5.0200e-001	-0.0129	35.954369
 503	5.0300e-001	-0.0258	35.187716
 504	5.0400e-001	-0.0319	34.376565
 505	5.0500e-001	-0.0410	33.537604
 506	5.0600e-001	-0.0529	32.693080
 507	5.0700e-001	-0.0617	31.784591
 508	5.0800e-001	-0.0733	30.817700
 509	5.0900e-001	-0.0829	29.880473
 510	5.1000e-001	-0.0934	28.852397
 511	5.1100e-001	-0.1032	27.791876
 512	5.1200e-001	-0.1134	26.747114
 513	5.1300e-001	-0.1219	25.641168
 514	5.1400e-001	-0.1328	24.516681
 515	5.1500e-001	-0.1416	23.359749
 516	5.1600e-001	-0.1505	22.184275
 517	5.1700e-001	-0.1622	20.991189
 518	5.1800e-001	-0.1722	19.749896
 519	5.1900e-001	-0.1817	18.548466
 520	5.2000e-001	-0.1922	17.317371
 521	5.2100e-001	-0.2035	16.053830
 522	5.2200e-001	-0.2120	14.780092
 523	5.2300e-001	-0.2222	13.518405
 524	5.2400e-001	-0.2316	12.264135
 525	5.2500e-001	-0.2408	11.001521
 526	5.2600e-001	-0.2543	9.782477
 527	5.2700e-001	-0.2622	8.534696
 528	5.2800e-001	-0.2708	7.323995
 529	5.2900e-001	-0.2814	6.122565
 530	5.3000e-001	-0.2934	4.920208
 531	5.3100e-001	-0.3014	3.768838
 532	5.3200e-001	-0.3135	2.617467
 533	5.3300e-001	-0.3245	1.473513
 534	5.3400e-001	-0.3322	0.377764
 535	5.3500e-001	-0.3428	-0.663289
 536	5.3600e-001	-0.3535	-1.729373
 537	5.3700e-001	-0.3616	-2.744470
 538	5.3800e-001	-0.3732	-3.733611
 539	5.3900e-001	-0.3816	-4.693086
 540	5.4000e-001	-0.3915	-5.671102
