»»»»»»»»»»»»»»»»»»»»»»»»»»»»»»»»»»»» Hysteresis ««««««««««««««««««««««««««««««««««««
»»»  Executed Version:	5.16.2
»»»  Vision Version:	5.16.10 (R)
»»»  Vision Compiled:	4/26/18
»»»  Driver Version:	5.16.6
»»»  Windows Version:	Windows 8
»»»  Processor Information:	x86 (AMD or Intel) - 8 Processors
»»»  Tester Name:	PPM21016-863
»»»  Tester S/N:	PPM21016-863
»»»  Internal Amp Type:	 RTI ML200V    
»»»  Internal Amp S/N:	 iAB2-0000     
»»»  Execution Count:	1
»»»»»»»»»»»»»»»»»»»»»»»»»»»»»»»»»»»»»»»»»»««««««««««««««««««««««««««««««««««««««««««

Stored:	6/5/2018 - 7:4:39
Configured:	06/05/18 05:57:41 AM
Executed:	06/05/18 07:04:13 AM

»»»»»»»»»»»»»»»»»»»»»»»»»»»»»»»»»»» Sample Info ««««««««««««««««««««««««««««««««««««
Sample Name:	Internal Reference Cap.
Lot Name:	N/A
Wafer Name:	N/A
Die Row/Column:	0/0
Capacitor Number:	0
Sample Area (cm2):	6.20e-005
Sample Thickness (µm):	1.00e-001

Mux Loop Adjustment:	Disabled

Amplifier:	Internal

»»»»»»»»»»»»»»»»»»»»»»»»»»»»»»»»»»» Tester Info «««««««««««««««««««««««««««««««««««
Tester Name:	PPM21016-863
Tester Serial Number:	PPM21016-863
Return Signal Amp. Level:	1.79 [Index: 2]

»»»»»»»»»»»»»»»»»»»»»»»»»»»»»»»» Hysteresis Info ««««««««««««««««««««««««««««««««««
Task Name:	Hyst-1
Volts:	3.00
Field:	300.00 (kV/cm)
Hysteresis Period (ms):	2.00e+000
Preset:	Enabled
Preset Delay (ms):	1.00e+003
Profile:	Double Bipolar

»»»»»»»»»»»»»»»»»»»»»»»»»»»»»»»»»»»»»» Data «««««««««««««««««««««««««««««««««««««««
Points:	2001

Valid Data

Point	Time (ms)	Field (kV/cm)	Measured Polarization
   1	1.0000e-003	-20.210266	-10.998098
   2	2.0000e-003	-18.989563	-11.022084
   3	3.0000e-003	-17.898560	-10.844585
   4	4.0000e-003	-16.738892	-10.756178
   5	5.0000e-003	-15.144348	-10.643785
   6	6.0000e-003	-14.297485	-10.488901
   7	7.0000e-003	-13.183594	-10.319626
   8	8.0000e-003	-11.848450	-10.094839
   9	9.0000e-003	-10.688782	-9.872794
  10	1.0000e-002	-9.185791	-9.626762
  11	1.1000e-002	-7.881165	-9.289582
  12	1.2000e-002	-7.194519	-9.005858
  13	1.3000e-002	-5.912781	-8.661139
  14	1.4000e-002	-4.936218	-8.264336
  15	1.5000e-002	-3.562927	-7.892204
  16	1.6000e-002	-2.532959	-7.416589
  17	1.7000e-002	-1.159668	-6.985519
  18	1.8000e-002	-0.076294	-6.469469
  19	1.9000e-002	1.419067	-5.969182
  20	2.0000e-002	2.342224	-5.475748
  21	2.1000e-002	3.654480	-4.892536
  22	2.2000e-002	4.783630	-4.331940
  23	2.3000e-002	6.187439	-3.715148
  24	2.4000e-002	7.278442	-3.093558
  25	2.5000e-002	8.445740	-2.467170
  26	2.6000e-002	9.590149	-1.797608
  27	2.7000e-002	10.757446	-1.113653
  28	2.8000e-002	12.283325	-0.440664
  29	2.9000e-002	13.175964	0.271389
  30	3.0000e-002	14.419556	1.014281
  31	3.1000e-002	15.525818	1.790069
  32	3.2000e-002	16.868591	2.575452
  33	3.3000e-002	17.913818	3.388933
  34	3.4000e-002	19.104004	4.209952
  35	3.5000e-002	20.683289	5.062497
  36	3.6000e-002	21.591187	5.909559
  37	3.7000e-002	23.056030	6.816244
  38	3.8000e-002	24.299622	7.696887
  39	3.9000e-002	25.283813	8.603572
  40	4.0000e-002	26.451111	9.503404
  41	4.1000e-002	27.664185	10.462859
  42	4.2000e-002	28.671265	11.420943
  43	4.3000e-002	30.204773	12.400958
  44	4.4000e-002	31.372070	13.384400
  45	4.5000e-002	32.173157	14.341799
  46	4.6000e-002	33.943176	15.342374
  47	4.7000e-002	35.125732	16.362137
  48	4.8000e-002	35.682678	17.357915
  49	4.9000e-002	37.170410	18.342042
  50	5.0000e-002	38.444519	19.343302
  51	5.1000e-002	39.497375	20.347303
  52	5.2000e-002	40.809631	21.322521
  53	5.3000e-002	41.992188	22.310074
  54	5.4000e-002	43.029785	23.264047
  55	5.5000e-002	44.670105	24.156340
  56	5.6000e-002	45.501709	25.050004
  57	5.7000e-002	46.676636	25.906661
  58	5.8000e-002	48.141479	26.679707
  59	5.9000e-002	49.377441	27.415747
  60	6.0000e-002	50.239563	28.099016
  61	6.1000e-002	51.605225	28.716494
  62	6.2000e-002	52.940369	29.242823
  63	6.3000e-002	54.115295	29.747223
  64	6.4000e-002	55.473328	30.159788
  65	6.5000e-002	56.526184	30.492171
  66	6.6000e-002	57.197571	30.790973
  67	6.7000e-002	58.891296	31.145286
  68	6.8000e-002	60.310364	31.346086
  69	6.9000e-002	61.500549	31.590062
  70	7.0000e-002	62.652588	31.784694
  71	7.1000e-002	63.903809	31.980697
  72	7.2000e-002	65.002441	32.163679
  73	7.3000e-002	66.070557	32.308968
  74	7.4000e-002	67.466736	32.474131
  75	7.5000e-002	68.794250	32.577615
  76	7.6000e-002	69.915771	32.708512
  77	7.7000e-002	71.258545	32.838039
  78	7.8000e-002	72.181702	32.961397
  79	7.9000e-002	73.463440	33.045692
  80	8.0000e-002	74.951172	33.184128
  81	8.1000e-002	75.836182	33.241010
  82	8.2000e-002	77.117920	33.367795
  83	8.3000e-002	78.269958	33.441125
  84	8.4000e-002	79.193115	33.562428
  85	8.5000e-002	80.421448	33.647408
  86	8.6000e-002	81.970215	33.684415
  87	8.7000e-002	82.977295	33.763228
  88	8.8000e-002	84.167480	33.820110
  89	8.9000e-002	85.533142	33.913999
  90	9.0000e-002	86.563110	33.981847
  91	9.1000e-002	87.905884	34.050379
  92	9.2000e-002	88.874817	34.106576
  93	9.3000e-002	89.889526	34.194297
  94	9.4000e-002	91.392517	34.230620
  95	9.5000e-002	92.346191	34.314229
  96	9.6000e-002	93.620300	34.360831
  97	9.7000e-002	95.008850	34.401951
  98	9.8000e-002	96.214294	34.454721
  99	9.9000e-002	97.511292	34.534219
 100	1.0000e-001	98.678589	34.593157
 101	1.0100e-001	99.906921	34.631535
 102	1.0200e-001	100.921631	34.676081
 103	1.0300e-001	102.317810	34.764488
 104	1.0400e-001	103.408813	34.787104
 105	1.0500e-001	104.621887	34.832335
 106	1.0600e-001	106.033325	34.871399
 107	1.0700e-001	106.658936	34.911147
 108	1.0800e-001	108.329773	34.962547
 109	1.0900e-001	109.733582	34.995442
 110	1.1000e-001	110.816956	34.994757
 111	1.1100e-001	111.747742	35.089332
 112	1.1200e-001	112.686157	35.115374
 113	1.1300e-001	114.273071	35.145529
 114	1.1400e-001	115.119934	35.201725
 115	1.1500e-001	116.783142	35.268202
 116	1.1600e-001	117.912292	35.292874
 117	1.1700e-001	118.995667	35.316860
 118	1.1800e-001	120.216370	35.358665
 119	1.1900e-001	121.353149	35.403896
 120	1.2000e-001	122.528076	35.453240
 121	1.2100e-001	123.741150	35.469687
 122	1.2200e-001	124.694824	35.551241
 123	1.2300e-001	126.174927	35.531367
 124	1.2400e-001	127.555847	35.590990
 125	1.2500e-001	128.509521	35.600585
 126	1.2600e-001	130.035400	35.648557
 127	1.2700e-001	130.821228	35.691047
 128	1.2800e-001	132.415771	35.722572
 129	1.2900e-001	133.354187	35.752041
 130	1.3000e-001	134.613037	35.784252
 131	1.3100e-001	135.627747	35.817833
 132	1.3200e-001	136.772156	35.865805
 133	1.3300e-001	138.000488	35.887050
 134	1.3400e-001	139.198303	35.899386
 135	1.3500e-001	140.548706	35.961066
 136	1.3600e-001	141.578674	35.959695
 137	1.3700e-001	143.119812	36.002185
 138	1.3800e-001	144.386292	36.027542
 139	1.3900e-001	145.317078	36.071403
 140	1.4000e-001	146.278381	36.098131
 141	1.4100e-001	147.521973	36.115264
 142	1.4200e-001	148.765564	36.162551
 143	1.4300e-001	150.131226	36.194761
 144	1.4400e-001	151.275635	36.221489
 145	1.4500e-001	152.557373	36.246161
 146	1.4600e-001	153.854370	36.291392
 147	1.4700e-001	154.998779	36.298246
 148	1.4800e-001	156.150818	36.350330
 149	1.4900e-001	156.745911	36.380485
 150	1.5000e-001	158.638000	36.395562
 151	1.5100e-001	159.912109	36.416121
 152	1.5200e-001	160.995483	36.455870
 153	1.5300e-001	162.055969	36.479171
 154	1.5400e-001	163.269043	36.525088
 155	1.5500e-001	164.810181	36.536053
 156	1.5600e-001	165.718079	36.562781
 157	1.5700e-001	166.870117	36.592250
 158	1.5800e-001	168.441772	36.653929
 159	1.5900e-001	169.502258	36.639537
 160	1.6000e-001	170.608521	36.680657
 161	1.6100e-001	171.722412	36.701902
 162	1.6200e-001	172.988892	36.733427
 163	1.6300e-001	174.064636	36.759469
 164	1.6400e-001	175.476074	36.787568
 165	1.6500e-001	176.300049	36.820463
 166	1.6600e-001	177.619934	36.825261
 167	1.6700e-001	178.970337	36.879401
 168	1.6800e-001	180.404663	36.884884
 169	1.6900e-001	181.442261	36.908185
 170	1.7000e-001	182.548523	36.923262
 171	1.7100e-001	183.685303	36.957528
 172	1.7200e-001	184.707642	36.995221
 173	1.7300e-001	186.134338	37.006186
 174	1.7400e-001	187.240601	37.038397
 175	1.7500e-001	188.606262	37.061012
 176	1.7600e-001	189.743042	37.104873
 177	1.7700e-001	191.101074	37.172035
 178	1.7800e-001	192.192078	37.153531
 179	1.7900e-001	193.367004	37.159014
 180	1.8000e-001	193.954468	37.170664
 181	1.8100e-001	195.884705	37.210413
 182	1.8200e-001	196.983337	37.253589
 183	1.8300e-001	197.998047	37.281002
 184	1.8400e-001	199.371338	37.351590
 185	1.8500e-001	200.622559	37.328289
 186	1.8600e-001	201.934814	37.346108
 187	1.8700e-001	203.155518	37.400934
 188	1.8800e-001	204.284668	37.380374
 189	1.8900e-001	205.390930	37.424235
 190	1.9000e-001	206.787109	37.458501
 191	1.9100e-001	207.916260	37.490026
 192	1.9200e-001	208.946228	37.508530
 193	1.9300e-001	210.037231	37.522922
 194	1.9400e-001	211.448669	37.547593
 195	1.9500e-001	212.692261	37.574321
 196	1.9600e-001	213.775635	37.581174
 197	1.9700e-001	214.996338	37.600363
 198	1.9800e-001	216.102600	37.649021
 199	1.9900e-001	216.979980	37.664099
 200	2.0000e-001	218.612671	37.685344
 201	2.0100e-001	219.512939	37.716183
 202	2.0200e-001	221.221924	37.728519
 203	2.0300e-001	222.091675	37.768268
 204	2.0400e-001	223.411560	37.757303
 205	2.0500e-001	224.754333	37.807331
 206	2.0600e-001	225.830078	37.852563
 207	2.0700e-001	226.783752	37.860102
 208	2.0800e-001	228.179932	37.869011
 209	2.0900e-001	229.499817	37.927263
 210	2.1000e-001	230.430603	37.935487
 211	2.1100e-001	231.559753	37.959474
 212	2.1200e-001	233.154297	37.992369
 213	2.1300e-001	234.169006	38.011558
 214	2.1400e-001	235.527039	38.048566
 215	2.1500e-001	236.549377	38.071867
 216	2.1600e-001	237.777710	38.070496
 217	2.1700e-001	239.051819	38.108875
 218	2.1800e-001	240.219116	38.107504
 219	2.1900e-001	241.462708	38.149994
 220	2.2000e-001	242.652893	38.162330
 221	2.2100e-001	243.629456	38.193855
 222	2.2200e-001	244.941711	38.222638
 223	2.2300e-001	246.162415	38.228121
 224	2.2400e-001	247.482300	38.274038
 225	2.2500e-001	248.718262	38.272667
 226	2.2600e-001	249.923706	38.307619
 227	2.2700e-001	250.602722	38.331605
 228	2.2800e-001	252.136230	38.350109
 229	2.2900e-001	253.402710	38.371354
 230	2.3000e-001	254.577637	38.391914
 231	2.3100e-001	255.615234	38.417271
 232	2.3200e-001	257.202148	38.460446
 233	2.3300e-001	258.140564	38.459076
 234	2.3400e-001	259.300232	38.494713
 235	2.3500e-001	260.459900	38.508419
 236	2.3600e-001	261.665344	38.532405
 237	2.3700e-001	262.947083	38.559133
 238	2.3800e-001	264.472961	38.582434
 239	2.3900e-001	265.228271	38.587231
 240	2.4000e-001	266.479492	38.623554
 241	2.4100e-001	267.944336	38.645484
 242	2.4200e-001	269.020081	38.661247
 243	2.4300e-001	270.057678	38.650281
 244	2.4400e-001	271.278381	38.709905
 245	2.4500e-001	272.651672	38.720870
 246	2.4600e-001	273.719788	38.755136
 247	2.4700e-001	275.077820	38.770899
 248	2.4800e-001	276.336670	38.804480
 249	2.4900e-001	277.305603	38.830522
 250	2.5000e-001	278.419495	38.851082
 251	2.5100e-001	279.876709	38.858620
 252	2.5200e-001	278.602600	38.832578
 253	2.5300e-001	277.458191	38.824354
 254	2.5400e-001	276.161194	38.764731
 255	2.5500e-001	275.009155	38.785976
 256	2.5600e-001	273.582458	38.772955
 257	2.5700e-001	272.506714	38.734576
 258	2.5800e-001	271.331787	38.719499
 259	2.5900e-001	270.164490	38.702366
 260	2.6000e-001	268.806458	38.670841
 261	2.6100e-001	267.997742	38.674268
 262	2.6200e-001	266.365051	38.625610
 263	2.6300e-001	265.281677	38.618071
 264	2.6400e-001	263.885498	38.571469
 265	2.6500e-001	262.985229	38.581749
 266	2.6600e-001	261.848450	38.570784
 267	2.6700e-001	260.612488	38.531720
 268	2.6800e-001	259.323120	38.539944
 269	2.6900e-001	258.171082	38.522126
 270	2.7000e-001	256.950378	38.470726
 271	2.7100e-001	255.920410	38.459076
 272	2.7200e-001	254.516602	38.432348
 273	2.7300e-001	253.089905	38.414530
 274	2.7400e-001	252.021790	38.396026
 275	2.7500e-001	250.801086	38.375466
 276	2.7600e-001	249.870300	38.373410
 277	2.7700e-001	248.649597	38.333661
 278	2.7800e-001	247.612000	38.297339
 279	2.7900e-001	246.192932	38.277465
 280	2.8000e-001	244.865417	38.232918
 281	2.8100e-001	243.789673	38.256219
 282	2.8200e-001	242.645264	38.212359
 283	2.8300e-001	241.119385	38.214415
 284	2.8400e-001	240.089417	38.191114
 285	2.8500e-001	239.036560	38.167812
 286	2.8600e-001	237.602234	38.133546
 287	2.8700e-001	236.732483	38.137658
 288	2.8800e-001	235.145569	38.079406
 289	2.8900e-001	233.955383	38.070496
 290	2.9000e-001	233.139038	38.047195
 291	2.9100e-001	231.819153	38.025950
 292	2.9200e-001	230.712891	37.993055
 293	2.9300e-001	229.286194	37.993055
 294	2.9400e-001	228.195190	37.981404
 295	2.9500e-001	226.905823	37.944396
 296	2.9600e-001	225.715637	37.941655
 297	2.9700e-001	224.395752	37.902592
 298	2.9800e-001	223.480225	37.891626
 299	2.9900e-001	222.038269	37.849136
 300	3.0000e-001	220.710754	37.823779
 301	3.0100e-001	219.726563	37.823779
 302	3.0200e-001	218.612671	37.797052
 303	3.0300e-001	217.514038	37.765527
 304	3.0400e-001	216.148376	37.747023
 305	3.0500e-001	214.996338	37.739484
 306	3.0600e-001	213.645935	37.716183
 307	3.0700e-001	212.387085	37.671637
 308	3.0800e-001	211.509705	37.688770
 309	3.0900e-001	210.235596	37.653133
 310	3.1000e-001	208.984375	37.618182
 311	3.1100e-001	207.839966	37.597622
 312	3.1200e-001	206.733704	37.568153
 313	3.1300e-001	205.474854	37.555817
 314	3.1400e-001	204.246521	37.522236
 315	3.1500e-001	202.865601	37.500306
 316	3.1600e-001	201.774597	37.483858
 317	3.1700e-001	200.096130	37.453018
 318	3.1800e-001	199.279785	37.423549
 319	3.1900e-001	198.036194	37.401619
 320	3.2000e-001	196.907043	37.399563
 321	3.2100e-001	195.808411	37.368723
 322	3.2200e-001	194.694519	37.339254
 323	3.2300e-001	193.168640	37.311156
 324	3.2400e-001	191.947937	37.318695
 325	3.2500e-001	190.963745	37.274149
 326	3.2600e-001	189.689636	37.251533
 327	3.2700e-001	188.659668	37.204931
 328	3.2800e-001	187.248230	37.214525
 329	3.2900e-001	186.233521	37.171350
 330	3.3000e-001	184.959412	37.158329
 331	3.3100e-001	183.898926	37.149419
 332	3.3200e-001	182.708740	37.104188
 333	3.3300e-001	181.518555	37.106244
 334	3.3400e-001	180.099487	37.049362
 335	3.3500e-001	178.764343	37.037711
 336	3.3600e-001	177.818298	36.983571
 337	3.3700e-001	176.803589	37.006872
 338	3.3800e-001	175.498962	36.962326
 339	3.3900e-001	174.072266	36.947248
 340	3.4000e-001	172.874451	36.908185
 341	3.4100e-001	171.943665	36.896534
 342	3.4200e-001	170.730591	36.883513
 343	3.4300e-001	169.212341	36.838967
 344	3.4400e-001	168.151855	36.810183
 345	3.4500e-001	166.915894	36.799218
 346	3.4600e-001	165.496826	36.791680
 347	3.4700e-001	164.619446	36.724518
 348	3.4800e-001	163.246155	36.732056
 349	3.4900e-001	162.055969	36.697105
 350	3.5000e-001	160.774231	36.671748
 351	3.5100e-001	159.896851	36.628572
 352	3.5200e-001	158.561707	36.647076
 353	3.5300e-001	157.394409	36.586082
 354	3.5400e-001	156.349182	36.573061
 355	3.5500e-001	154.937744	36.536053
 356	3.5600e-001	153.617859	36.520291
 357	3.5700e-001	152.503967	36.493563
 358	3.5800e-001	151.184082	36.453814
 359	3.5900e-001	150.146484	36.445590
 360	3.6000e-001	148.605347	36.417492
 361	3.6100e-001	147.819519	36.392820
 362	3.6200e-001	146.598816	36.372946
 363	3.6300e-001	145.278931	36.342106
 364	3.6400e-001	144.233704	36.361981
 365	3.6500e-001	142.745972	36.290022
 366	3.6600e-001	141.578674	36.269462
 367	3.6700e-001	140.510559	36.233825
 368	3.6800e-001	139.289856	36.205041
 369	3.6900e-001	138.031006	36.200244
 370	3.7000e-001	137.031555	36.161866
 371	3.7100e-001	135.665894	36.136509
 372	3.7200e-001	134.429932	36.089907
 373	3.7300e-001	133.575439	36.071403
 374	3.7400e-001	132.125854	36.059067
 375	3.7500e-001	131.164551	36.031654
 376	3.7600e-001	129.745483	36.016577
 377	3.7700e-001	128.707886	35.970660
 378	3.7800e-001	127.243042	35.945988
 379	3.7900e-001	126.167297	35.911722
 380	3.8000e-001	125.312805	35.916519
 381	3.8100e-001	123.718262	35.865120
 382	3.8200e-001	122.482300	35.839078
 383	3.8300e-001	121.330261	35.795902
 384	3.8400e-001	120.033264	35.784252
 385	3.8500e-001	118.789673	35.749985
 386	3.8600e-001	117.630005	35.728055
 387	3.8700e-001	116.218567	35.702013
 388	3.8800e-001	115.219116	35.647187
 389	3.8900e-001	114.120483	35.632110
 390	3.9000e-001	112.892151	35.595787
 391	3.9100e-001	111.663818	35.588934
 392	3.9200e-001	110.771179	35.591675
 393	3.9300e-001	109.504700	35.519716
 394	3.9400e-001	108.169556	35.503954
 395	3.9500e-001	106.857300	35.473799
 396	3.9600e-001	105.720520	35.447072
 397	3.9700e-001	104.621887	35.414176
 398	3.9800e-001	103.385925	35.388819
 399	3.9900e-001	102.134705	35.354553
 400	4.0000e-001	100.883484	35.318231
 401	4.0100e-001	99.502563	35.274370
 402	4.0200e-001	98.716736	35.256551
 403	4.0300e-001	97.251892	35.269573
 404	4.0400e-001	95.855713	35.213376
 405	4.0500e-001	94.985962	35.173627
 406	4.0600e-001	93.772888	35.145529
 407	4.0700e-001	92.460632	35.113318
 408	4.0800e-001	90.919495	35.063975
 409	4.0900e-001	90.141296	35.060548
 410	4.1000e-001	89.050293	35.009834
 411	4.1100e-001	87.730408	34.998869
 412	4.1200e-001	86.662292	34.951582
 413	4.1300e-001	85.395813	34.926910
 414	4.1400e-001	84.152222	34.889217
 415	4.1500e-001	82.832336	34.850839
 416	4.1600e-001	81.489563	34.833020
 417	4.1700e-001	80.619812	34.774082
 418	4.1800e-001	79.597473	34.756264
 419	4.1900e-001	77.896118	34.736390
 420	4.2000e-001	77.102661	34.646612
 421	4.2100e-001	75.729370	34.656892
 422	4.2200e-001	74.584961	34.621940
 423	4.2300e-001	73.623657	34.596583
 424	4.2400e-001	72.143555	34.560261
 425	4.2500e-001	70.884705	34.530107
 426	4.2600e-001	69.557190	34.472539
 427	4.2700e-001	68.778992	34.450609
 428	4.2800e-001	67.459106	34.421825
 429	4.2900e-001	66.368103	34.353293
 430	4.3000e-001	65.063477	34.345754
 431	4.3100e-001	63.781738	34.318341
 432	4.3200e-001	62.492371	34.267627
 433	4.3300e-001	61.416626	34.251865
 434	4.3400e-001	60.028076	34.191556
 435	4.3500e-001	59.150696	34.166884
 436	4.3600e-001	58.052063	34.122338
 437	4.3700e-001	56.419373	34.072310
 438	4.3800e-001	55.519104	34.043526
 439	4.3900e-001	53.993225	34.006518
 440	4.4000e-001	52.947998	33.946895
 441	4.4100e-001	52.024841	33.886586
 442	4.4200e-001	50.704956	33.859859
 443	4.4300e-001	49.354553	33.822166
 444	4.4400e-001	48.324585	33.755689
 445	4.4500e-001	47.317505	33.748836
 446	4.4600e-001	45.837402	33.694010
 447	4.4700e-001	44.578552	33.650149
 448	4.4800e-001	43.525696	33.614512
 449	4.4900e-001	42.083740	33.541868
 450	4.5000e-001	41.130066	33.478133
 451	4.5100e-001	39.505005	33.434272
 452	4.5200e-001	38.673401	33.378760
 453	4.5300e-001	37.582397	33.325990
 454	4.5400e-001	36.201477	33.269794
 455	4.5500e-001	34.721375	33.226618
 456	4.5600e-001	33.981323	33.175904
 457	4.5700e-001	32.531738	33.063511
 458	4.5800e-001	31.143188	33.059399
 459	4.5900e-001	30.189514	33.000461
 460	4.6000e-001	28.984070	32.917537
 461	4.6100e-001	27.519226	32.863396
 462	4.6200e-001	26.664734	32.745520
 463	4.6300e-001	25.215149	32.698233
 464	4.6400e-001	24.261475	32.655742
 465	4.6500e-001	23.094177	32.570762
 466	4.6600e-001	21.644592	32.451516
 467	4.6700e-001	20.614624	32.396690
 468	4.6800e-001	19.416809	32.302800
 469	4.6900e-001	18.081665	32.229470
 470	4.7000e-001	16.929626	32.145861
 471	4.7100e-001	15.838623	32.025929
 472	4.7200e-001	14.595032	31.901199
 473	4.7300e-001	12.969971	31.773729
 474	4.7400e-001	12.031555	31.694231
 475	4.7500e-001	10.848999	31.554425
 476	4.7600e-001	9.628296	31.465333
 477	4.7700e-001	8.605957	31.286463
 478	4.7800e-001	7.476807	31.178867
 479	4.7900e-001	6.118774	31.008906
 480	4.8000e-001	5.027771	30.851281
 481	4.8100e-001	3.768921	30.677894
 482	4.8200e-001	2.265930	30.501080
 483	4.8300e-001	1.525879	30.301651
 484	4.8400e-001	0.129700	30.078235
 485	4.8500e-001	-1.091003	29.865784
 486	4.8600e-001	-2.235413	29.626605
 487	4.8700e-001	-3.402710	29.361385
 488	4.8800e-001	-4.539490	29.082457
 489	4.8900e-001	-5.859375	28.772005
 490	4.9000e-001	-7.011414	28.432084
 491	4.9100e-001	-8.178711	28.090106
