»»»»»»»»»»»»»»»»»»»»»»»»»»»»»»»»»»»» Hysteresis ««««««««««««««««««««««««««««««««««««
»»»  Executed Version:	5.16.2
»»»  Vision Version:	5.16.10 (R)
»»»  Vision Compiled:	4/26/18
»»»  Driver Version:	5.16.6
»»»  Windows Version:	Windows 8
»»»  Processor Information:	x86 (AMD or Intel) - 8 Processors
»»»  Tester Name:	PPM21016-863
»»»  Tester S/N:	PPM21016-863
»»»  Internal Amp Type:	 RTI ML200V    
»»»  Internal Amp S/N:	 iAB2-0000     
»»»  Execution Count:	1
»»»»»»»»»»»»»»»»»»»»»»»»»»»»»»»»»»»»»»»»»»««««««««««««««««««««««««««««««««««««««««««

Stored:	5/8/2018 - 15:30:6
Configured:	05/08/18 02:20:49 PM
Executed:	05/08/18 03:29:44 PM

»»»»»»»»»»»»»»»»»»»»»»»»»»»»»»»»»»» Sample Info ««««««««««««««««««««««««««««««««««««
Sample Name:	Internal Reference Cap.
Lot Name:	N/A
Wafer Name:	N/A
Die Row/Column:	0/0
Capacitor Number:	0
Sample Area (cm2):	7.85e-005
Sample Thickness (µm):	8.00e-002

Mux Loop Adjustment:	Disabled

Amplifier:	Internal

»»»»»»»»»»»»»»»»»»»»»»»»»»»»»»»»»»» Tester Info «««««««««««««««««««««««««««««««««««
Tester Name:	PPM21016-863
Tester Serial Number:	PPM21016-863
Return Signal Amp. Level:	0.19 [Index: 3]

»»»»»»»»»»»»»»»»»»»»»»»»»»»»»»»» Hysteresis Info ««««««««««««««««««««««««««««««««««
Task Name:	Hyst-2
Volts:	2.40
Field:	300.00 (kV/cm)
Hysteresis Period (ms):	2.00e+000
Preset:	DisabledProfile:	Double Bipolar

»»»»»»»»»»»»»»»»»»»»»»»»»»»»»»»»»»»»»» Data «««««««««««««««««««««««««««««««««««««««
Points:	2001

Valid Data

Point	Time (ms)	Field (kV/cm)	Measured Polarization
   1	1.0000e-003	0.190735	-29.975332
   2	2.0000e-003	1.249313	-30.005989
   3	3.0000e-003	2.565384	-29.965112
   4	4.0000e-003	3.576279	-30.036647
   5	5.0000e-003	4.720688	-29.888469
   6	6.0000e-003	6.017685	-29.847592
   7	7.0000e-003	7.314682	-29.929345
   8	8.0000e-003	8.487701	-29.837373
   9	9.0000e-003	9.593964	-29.791387
  10	1.0000e-002	10.204315	-29.903798
  11	1.1000e-002	12.416840	-29.765839
  12	1.2000e-002	13.160706	-29.919126
  13	1.3000e-002	14.352798	-29.653428
  14	1.4000e-002	15.649796	-29.898688
  15	1.5000e-002	17.166138	-29.939565
  16	1.6000e-002	17.986298	-29.760729
  17	1.7000e-002	19.340515	-29.719853
  18	1.8000e-002	20.599365	-29.719853
  19	1.9000e-002	21.867752	-29.653428
  20	2.0000e-002	22.983551	-29.770949
  21	2.1000e-002	23.698807	-29.939565
  22	2.2000e-002	25.367737	-29.622771
  23	2.3000e-002	26.521683	-29.622771
  24	2.4000e-002	27.656555	-29.929345
  25	2.5000e-002	28.505325	-29.326415
  26	2.6000e-002	29.582977	-29.704524
  27	2.7000e-002	31.223297	-29.382621
  28	2.8000e-002	32.472610	-29.423497
  29	2.9000e-002	33.845901	-29.638100
  30	3.0000e-002	34.790039	-29.433716
  31	3.1000e-002	36.010742	-29.469483
  32	3.2000e-002	37.546158	-29.362182
  33	3.3000e-002	38.375854	-29.285539
  34	3.4000e-002	39.625168	-29.295758
  35	3.5000e-002	40.855408	-29.214005
  36	3.6000e-002	41.809082	-29.091375
  37	3.7000e-002	43.468475	-29.101594
  38	3.8000e-002	44.212341	-29.050498
  39	3.9000e-002	45.766830	-29.060717
  40	4.0000e-002	46.787262	-28.907430
  41	4.1000e-002	48.131943	-28.544650
  42	4.2000e-002	49.314499	-28.769471
  43	4.3000e-002	50.630569	-28.631513
  44	4.4000e-002	51.641464	-28.651951
  45	4.5000e-002	52.871704	-28.570198
  46	4.6000e-002	54.063797	-28.457787
  47	4.7000e-002	55.246353	-28.616184
  48	4.8000e-002	56.552887	-28.197199
  49	4.9000e-002	57.773590	-28.452678
  50	5.0000e-002	58.755875	-28.079679
  51	5.1000e-002	60.062408	-27.977487
  52	5.2000e-002	61.635971	-27.890624
  53	5.3000e-002	62.437057	-27.788433
  54	5.4000e-002	63.724518	-27.808871
  55	5.5000e-002	65.135956	-27.359228
  56	5.6000e-002	66.194534	-27.676022
  57	5.7000e-002	67.434311	-27.440982
  58	5.8000e-002	68.521500	-27.134407
  59	5.9000e-002	69.713593	-27.262146
  60	6.0000e-002	70.819855	-27.006668
  61	6.1000e-002	72.298050	-27.006668
  62	6.2000e-002	73.337555	-26.761408
  63	6.3000e-002	74.329376	-26.669435
  64	6.4000e-002	75.960159	-26.531477
  65	6.5000e-002	76.866150	-26.291327
  66	6.6000e-002	78.048706	-26.398628
  67	6.7000e-002	79.593658	-25.478904
  68	6.8000e-002	80.499649	-26.046067
  69	6.9000e-002	81.586838	-25.933656
  70	7.0000e-002	82.960129	-25.647520
  71	7.1000e-002	82.483292	-26.516148
  72	7.2000e-002	85.458755	-25.627082
  73	7.3000e-002	86.345673	-25.392041
  74	7.4000e-002	87.699890	-25.054809
  75	7.5000e-002	88.863373	-25.310288
  76	7.6000e-002	90.198517	-24.845317
  77	7.7000e-002	91.161728	-24.538742
  78	7.8000e-002	92.191696	-24.288373
  79	7.9000e-002	93.727112	-24.247496
  80	8.0000e-002	95.033646	-24.078880
  81	8.1000e-002	96.168518	-23.767196
  82	8.2000e-002	96.788406	-23.910264
  83	8.3000e-002	98.457336	-23.399306
  84	8.4000e-002	99.391937	-23.123389
  85	8.5000e-002	101.032257	-23.297115
  86	8.6000e-002	102.157593	-22.791267
  87	8.7000e-002	103.120804	-22.500021
  88	8.8000e-002	104.703903	-22.157679
  89	8.9000e-002	105.552673	-21.866433
  90	9.0000e-002	106.935501	-21.718256
  91	9.1000e-002	107.936859	-21.335037
  92	9.2000e-002	109.186172	-21.094887
  93	9.3000e-002	110.435486	-20.732107
  94	9.4000e-002	111.703873	-20.583930
  95	9.5000e-002	112.762451	-20.323341
  96	9.6000e-002	113.992691	-19.822603
  97	9.7000e-002	114.936829	-19.623329
  98	9.8000e-002	116.491318	-19.183906
  99	9.9000e-002	117.588043	-18.841564
 100	1.0000e-001	118.885040	-18.371483
 101	1.0100e-001	121.145248	-17.686800
 102	1.0200e-001	121.231079	-17.932059
 103	1.0300e-001	122.575760	-17.242267
 104	1.0400e-001	123.548508	-16.945911
 105	1.0500e-001	124.826431	-16.532035
 106	1.0600e-001	126.123428	-16.077283
 107	1.0700e-001	127.172470	-15.530558
 108	1.0800e-001	128.479004	-15.029820
 109	1.0900e-001	129.575729	-14.651711
 110	1.1000e-001	130.929947	-14.099877
 111	1.1100e-001	132.207870	-13.553152
 112	1.1200e-001	133.180618	-13.026866
 113	1.1300e-001	134.315491	-12.454593
 114	1.1400e-001	135.755539	-11.984512
 115	1.1500e-001	136.814117	-11.008583
 116	1.1600e-001	138.578415	-10.364776
 117	1.1700e-001	139.226913	-9.976448
 118	1.1800e-001	140.380859	-9.301984
 119	1.1900e-001	141.572952	-8.714383
 120	1.2000e-001	142.946243	-7.963275
 121	1.2100e-001	144.042969	-6.854497
 122	1.2200e-001	145.177841	-6.358868
 123	1.2300e-001	146.636963	-5.755938
 124	1.2400e-001	147.705078	-4.774899
 125	1.2500e-001	148.839951	-3.962477
 126	1.2600e-001	150.032043	-3.124506
 127	1.2700e-001	151.071548	-2.235440
 128	1.2800e-001	152.425766	-1.259511
 129	1.2900e-001	153.665543	-0.227376
 130	1.3000e-001	154.514313	0.707676
 131	1.3100e-001	155.706406	1.918646
 132	1.3200e-001	157.308578	2.909904
 133	1.3300e-001	158.205032	4.044230
 134	1.3400e-001	159.444809	5.122351
 135	1.3500e-001	160.493851	6.323101
 136	1.3600e-001	161.743164	7.626043
 137	1.3700e-001	162.944794	8.745040
 138	1.3800e-001	164.270401	10.221708
 139	1.3900e-001	165.367126	12.127580
 140	1.4000e-001	166.778564	12.837811
 141	1.4100e-001	167.598724	14.110096
 142	1.4200e-001	168.952942	15.857571
 143	1.4300e-001	170.240402	17.354677
 144	1.4400e-001	171.556473	18.780249
 145	1.4500e-001	172.662735	20.742327
 146	1.4600e-001	173.530579	22.029940
 147	1.4700e-001	175.170898	23.460621
 148	1.4800e-001	176.134109	24.911741
 149	1.4900e-001	177.516937	26.557025
 150	1.5000e-001	178.709030	28.166541
 151	1.5100e-001	179.452896	29.791387
 152	1.5200e-001	181.102753	31.344698
 153	1.5300e-001	182.065964	32.857133
 154	1.5400e-001	183.267593	34.451321
 155	1.5500e-001	184.659958	35.912660
 156	1.5600e-001	186.185837	37.328012
 157	1.5700e-001	186.939240	39.049940
 158	1.5800e-001	188.589096	40.194485
 159	1.5900e-001	189.418793	41.712029
 160	1.6000e-001	190.324783	43.014971
 161	1.6100e-001	191.841125	44.292365
 162	1.6200e-001	192.842484	45.390924
 163	1.6300e-001	193.977356	46.433278
 164	1.6400e-001	195.608139	47.511399
 165	1.6500e-001	196.819305	48.466890
 166	1.6600e-001	197.906494	49.442819
 167	1.6700e-001	199.317932	50.439186
 168	1.6800e-001	200.281143	50.873500
 169	1.6900e-001	201.644897	51.563293
 170	1.7000e-001	202.798843	52.064032
 171	1.7100e-001	203.981400	52.631195
 172	1.7200e-001	205.297470	53.183029
 173	1.7300e-001	206.422806	53.418069
 174	1.7400e-001	207.672119	53.837055
 175	1.7500e-001	209.465027	54.363341
 176	1.7600e-001	209.617615	54.332684
 177	1.7700e-001	211.277008	54.567724
 178	1.7800e-001	212.678909	54.812984
 179	1.7900e-001	213.613510	55.002038
 180	1.8000e-001	214.929581	55.150216
 181	1.8100e-001	216.217041	55.410804
 182	1.8200e-001	217.370987	55.487448
 183	1.8300e-001	218.410492	55.732708
 184	1.8400e-001	219.764709	55.742927
 185	1.8500e-001	220.918655	55.681612
 186	1.8600e-001	222.101212	55.829790
 187	1.8700e-001	223.388672	55.931981
 188	1.8800e-001	224.475861	55.952419
 189	1.8900e-001	225.706100	56.197679
 190	1.9000e-001	227.890015	56.550240
 191	1.9100e-001	228.128433	56.560459
 192	1.9200e-001	229.234695	56.371405
 193	1.9300e-001	230.731964	56.172131
 194	1.9400e-001	231.704712	56.545130
 195	1.9500e-001	232.992172	56.524692
 196	1.9600e-001	234.212875	56.519582
 197	1.9700e-001	235.233307	56.504254
 198	1.9800e-001	236.320496	56.631993
 199	1.9900e-001	237.760544	56.795500
 200	2.0000e-001	238.838196	56.780171
 201	2.0100e-001	239.887238	56.769952
 202	2.0200e-001	241.508484	56.902801
 203	2.0300e-001	242.557526	56.918129
 204	2.0400e-001	243.911743	56.841486
 205	2.0500e-001	245.227814	57.158280
 206	2.0600e-001	246.124268	57.515950
 207	2.0700e-001	247.325897	57.081636
 208	2.0800e-001	249.004364	57.240033
 209	2.0900e-001	249.624252	57.219594
 210	2.1000e-001	250.921249	57.362663
 211	2.1100e-001	252.246857	57.434197
 212	2.1200e-001	253.496170	57.347334
 213	2.1300e-001	254.468918	57.495512
 214	2.1400e-001	255.775452	57.383101
 215	2.1500e-001	256.805420	57.546607
 216	2.1600e-001	258.102417	57.592594
 217	2.1700e-001	259.313583	57.628361
 218	2.1800e-001	260.496140	57.791867
 219	2.1900e-001	260.801315	57.464854
 220	2.2000e-001	263.280869	57.812305
 221	2.2100e-001	264.081955	57.986031
 222	2.2200e-001	265.169144	57.863401
 223	2.2300e-001	266.981125	57.914497
 224	2.2400e-001	267.839432	58.200633
 225	2.2500e-001	268.840790	58.093332
 226	2.2600e-001	270.137787	58.042236
 227	2.2700e-001	271.282196	58.215962
 228	2.2800e-001	272.417068	58.251729
 229	2.2900e-001	273.942947	58.123990
 230	2.3000e-001	275.144577	58.496989
 231	2.3100e-001	276.145935	58.451002
 232	2.3200e-001	277.853012	58.640057
 233	2.3300e-001	278.615952	58.542975
 234	2.3400e-001	279.340744	58.537865
 235	2.3500e-001	281.190872	58.706481
 236	2.3600e-001	282.192230	58.486769
 237	2.3700e-001	283.460617	58.721810
 238	2.3800e-001	284.690857	58.803563
 239	2.3900e-001	285.768509	58.859769
 240	2.4000e-001	286.951065	58.926193
 241	2.4100e-001	288.372040	58.844440
 242	2.4200e-001	289.316177	59.115247
 243	2.4300e-001	290.489197	59.207220
 244	2.4400e-001	291.833878	59.401384
 245	2.4500e-001	292.892456	59.232768
 246	2.4600e-001	294.179916	59.237877
 247	2.4700e-001	295.448303	59.386055
 248	2.4800e-001	296.449661	59.391165
 249	2.4900e-001	298.175812	59.728397
 250	2.5000e-001	298.891068	59.432041
 251	2.5100e-001	300.188065	59.370726
 252	2.5200e-001	299.177170	59.661972
 253	2.5300e-001	298.147202	59.615986
 254	2.5400e-001	296.716690	59.631315
 255	2.5500e-001	295.467377	59.784602
 256	2.5600e-001	294.389725	59.677301
 257	2.5700e-001	293.092728	59.682410
 258	2.5800e-001	291.814804	59.825479
 259	2.5900e-001	290.956497	59.820369
 260	2.6000e-001	289.621353	59.661972
 261	2.6100e-001	288.372040	59.871465
 262	2.6200e-001	287.199020	60.065629
 263	2.6300e-001	285.987854	59.702849
 264	2.6400e-001	284.452438	59.692630
 265	2.6500e-001	283.803940	59.830588
 266	2.6600e-001	282.344818	59.948108
 267	2.6700e-001	281.171799	59.805040
 268	2.6800e-001	280.084610	59.988985
 269	2.6900e-001	278.749466	59.881684
 270	2.7000e-001	277.557373	60.004314
 271	2.7100e-001	276.422501	60.045190
 272	2.7200e-001	275.144577	59.922560
 273	2.7300e-001	274.028778	59.942999
 274	2.7400e-001	272.483826	59.953218
 275	2.7500e-001	271.606445	59.988985
 276	2.7600e-001	270.338058	59.759054
 277	2.7700e-001	269.050598	60.080957
 278	2.7800e-001	267.686844	60.086067
 279	2.7900e-001	266.609192	60.040081
 280	2.8000e-001	265.588760	60.070738
 281	2.8100e-001	264.463425	59.958328
 282	2.8200e-001	263.156891	60.556148
 283	2.8300e-001	262.041092	60.137163
 284	2.8400e-001	260.858536	60.050300
 285	2.8500e-001	259.637833	60.080957
 286	2.8600e-001	258.455276	60.086067
 287	2.8700e-001	257.253647	60.121834
 288	2.8800e-001	256.052017	60.178039
 289	2.8900e-001	254.602432	59.978766
 290	2.9000e-001	253.505707	60.091177
 291	2.9100e-001	252.256393	60.188258
 292	2.9200e-001	251.073837	60.111615
 293	2.9300e-001	250.730515	60.111615
 294	2.9400e-001	248.861313	60.060519
 295	2.9500e-001	247.564316	60.178039
 296	2.9600e-001	246.391296	60.561258
 297	2.9700e-001	245.313644	60.203587
 298	2.9800e-001	243.988037	60.060519
 299	2.9900e-001	242.786407	60.157601
 300	3.0000e-001	241.708755	60.162711
 301	3.0100e-001	240.373611	60.096286
 302	3.0200e-001	239.200592	60.213806
 303	3.0300e-001	238.170624	60.167820
 304	3.0400e-001	236.511230	60.096286
 305	3.0500e-001	235.605240	60.193368
 306	3.0600e-001	234.727859	60.086067
 307	3.0700e-001	233.125687	60.096286
 308	3.0800e-001	231.523514	59.988985
 309	3.0900e-001	231.075287	60.111615
 310	3.1000e-001	229.482651	60.111615
 311	3.1100e-001	228.424072	60.193368
 312	3.1200e-001	227.193832	60.193368
 313	3.1300e-001	225.915909	60.806517
 314	3.1400e-001	224.857330	60.080957
 315	3.1500e-001	223.579407	60.218916
 316	3.1600e-001	222.139359	60.239354
 317	3.1700e-001	221.166611	59.973656
 318	3.1800e-001	220.079422	60.178039
 319	3.1900e-001	218.572617	59.988985
 320	3.2000e-001	217.580795	60.065629
 321	3.2100e-001	216.407776	60.218916
 322	3.2200e-001	214.843750	60.024752
 323	3.2300e-001	214.233398	60.208697
 324	3.2400e-001	212.841034	59.794821
 325	3.2500e-001	211.648941	60.198478
 326	3.2600e-001	210.256577	60.034971
 327	3.2700e-001	209.112167	60.091177
 328	3.2800e-001	207.853317	60.096286
 329	3.2900e-001	206.527710	60.101396
 330	3.3000e-001	205.411911	60.045190
 331	3.3100e-001	204.334259	60.080957
 332	3.3200e-001	203.142166	60.126944
 333	3.3300e-001	202.131271	60.132053
 334	3.3400e-001	200.843811	59.988985
 335	3.3500e-001	199.451447	60.075848
 336	3.3600e-001	198.545456	60.004314
 337	3.3700e-001	197.763443	60.336436
 338	3.3800e-001	196.037292	59.963437
 339	3.3900e-001	194.807053	60.080957
 340	3.4000e-001	193.405151	60.157601
 341	3.4100e-001	192.461014	59.881684
 342	3.4200e-001	191.230774	60.106505
 343	3.4300e-001	190.181732	60.137163
 344	3.4400e-001	188.846588	59.656863
 345	3.4500e-001	187.492371	60.009423
 346	3.4600e-001	186.538696	59.953218
 347	3.4700e-001	185.041428	59.973656
 348	3.4800e-001	183.258057	59.774383
 349	3.4900e-001	182.790756	60.188258
 350	3.5000e-001	181.570053	59.968547
 351	3.5100e-001	180.959702	60.448847
 352	3.5200e-001	179.738998	60.070738
 353	3.5300e-001	178.060532	59.958328
 354	3.5400e-001	176.839828	59.851026
 355	3.5500e-001	175.476074	59.856136
 356	3.5600e-001	174.608231	60.014533
 357	3.5700e-001	172.920227	59.871465
 358	3.5800e-001	172.004700	59.871465
 359	3.5900e-001	170.640945	59.820369
 360	3.6000e-001	169.372559	59.743725
 361	3.6100e-001	168.418884	59.759054
 362	3.6200e-001	167.541504	59.825479
 363	3.6300e-001	166.168213	59.932780
 364	3.6400e-001	165.061951	59.784602
 365	3.6500e-001	163.612366	59.881684
 366	3.6600e-001	162.343979	59.759054
 367	3.6700e-001	160.856247	59.713068
 368	3.6800e-001	160.102844	59.845917
 369	3.6900e-001	157.337189	59.053932
 370	3.7000e-001	157.613754	59.907232
 371	3.7100e-001	156.135559	59.713068
 372	3.7200e-001	155.258179	59.723287
 373	3.7300e-001	154.104233	59.718177
 374	3.7400e-001	152.864456	59.621095
 375	3.7500e-001	151.443481	59.288973
 376	3.7600e-001	150.623322	59.692630
 377	3.7700e-001	149.126053	59.646643
 378	3.7800e-001	147.886276	59.575109
 379	3.7900e-001	147.113800	59.391165
 380	3.8000e-001	145.692825	59.559781
 381	3.8100e-001	144.357681	59.615986
 382	3.8200e-001	143.165588	59.564890
 383	3.8300e-001	142.030716	59.554671
 384	3.8400e-001	141.010284	59.529123
 385	3.8500e-001	139.675140	59.539342
 386	3.8600e-001	138.492584	59.401384
 387	3.8700e-001	137.128830	59.677301
 388	3.8800e-001	136.041641	59.437151
 389	3.8900e-001	134.840012	59.626205
 390	3.9000e-001	133.581161	59.508685
 391	3.9100e-001	132.427216	59.442260
 392	3.9200e-001	131.320953	59.416712
 393	3.9300e-001	129.909515	59.396274
 394	3.9400e-001	129.051208	59.309411
 395	3.9500e-001	127.658844	59.309411
 396	3.9600e-001	126.457214	59.391165
 397	3.9700e-001	124.912262	59.232768
 398	3.9800e-001	124.216080	59.518904
 399	3.9900e-001	122.652054	59.242987
 400	4.0000e-001	121.650696	59.232768
 401	4.0100e-001	120.277405	59.268535
 402	4.0200e-001	119.266510	59.212329
 403	4.0300e-001	118.026733	59.273644
 404	4.0400e-001	116.767883	59.268535
 405	4.0500e-001	115.976334	59.508685
 406	4.0600e-001	114.297867	58.972179
 407	4.0700e-001	113.115311	59.059042
 408	4.0800e-001	112.180710	59.135686
 409	4.0900e-001	111.198425	59.360507
 410	4.1000e-001	109.672546	59.013056
 411	4.1100e-001	108.537674	59.151014
 412	4.1200e-001	107.393265	59.115247
 413	4.1300e-001	106.153488	59.115247
 414	4.1400e-001	104.866028	59.105028
 415	4.1500e-001	103.731155	59.048823
 416	4.1600e-001	102.357864	58.895536
 417	4.1700e-001	101.613998	59.048823
 418	4.1800e-001	99.973679	59.018165
 419	4.1900e-001	98.972321	58.869988
 420	4.2000e-001	97.618103	58.967070
 421	4.2100e-001	96.368790	58.885316
 422	4.2200e-001	95.214844	59.028385
 423	4.2300e-001	95.205307	58.926193
 424	4.2400e-001	93.250275	58.767796
 425	4.2500e-001	91.609955	58.742248
 426	4.2600e-001	90.532303	58.793344
 427	4.2700e-001	89.311600	58.747358
 428	4.2800e-001	88.119507	58.726920
 429	4.2900e-001	86.450577	58.767796
 430	4.3000e-001	85.906982	58.742248
 431	4.3100e-001	84.552765	58.798454
 432	4.3200e-001	83.389282	58.732029
 433	4.3300e-001	82.025528	58.706481
 434	4.3400e-001	80.785751	58.634947
 435	4.3500e-001	79.822540	58.471441
 436	4.3600e-001	78.315735	58.522536
 437	4.3700e-001	77.304840	58.793344
 438	4.3800e-001	76.284409	58.491879
 439	4.3900e-001	74.987411	58.420345
 440	4.4000e-001	73.614120	58.384578
 441	4.4100e-001	71.516037	58.297715
 442	4.4200e-001	71.287155	58.568523
 443	4.4300e-001	70.180893	58.384578
 444	4.4400e-001	68.960190	58.093332
 445	4.4500e-001	67.491531	58.578742
 446	4.4600e-001	66.385269	58.272167
 447	4.4700e-001	65.460205	58.246619
 448	4.4800e-001	64.086914	58.261948
 449	4.4900e-001	62.847137	58.241510
 450	4.5000e-001	62.046051	58.297715
 451	4.5100e-001	60.310364	58.267058
 452	4.5200e-001	59.299469	58.083113
 453	4.5300e-001	58.088303	58.359030
 454	4.5400e-001	56.943893	58.200633
 455	4.5500e-001	55.665970	58.057565
 456	4.5600e-001	54.502487	58.123990
 457	4.5700e-001	53.358078	58.042236
 458	4.5800e-001	52.089691	57.950264
 459	4.5900e-001	51.574707	58.343701
 460	4.6000e-001	49.543381	57.950264
 461	4.6100e-001	48.637390	57.914497
 462	4.6200e-001	47.492981	57.541498
 463	4.6300e-001	45.537949	57.837853
 464	4.6400e-001	44.736862	58.011579
 465	4.6500e-001	43.506622	57.653908
 466	4.6600e-001	42.343140	57.705004
 467	4.6700e-001	41.189194	57.735662
 468	4.6800e-001	40.159225	57.745881
 469	4.6900e-001	38.290024	57.643689
 470	4.7000e-001	37.755966	57.536388
 471	4.7100e-001	36.592484	57.618141
 472	4.7200e-001	35.333633	57.689675
 473	4.7300e-001	33.845901	57.546607
 474	4.7400e-001	32.806396	57.521059
 475	4.7500e-001	31.518936	57.505731
 476	4.7600e-001	30.355453	57.429087
 477	4.7700e-001	28.953552	57.224704
 478	4.7800e-001	27.866364	57.531279
 479	4.7900e-001	26.617050	57.301348
 480	4.8000e-001	25.787354	57.163389
 481	4.8100e-001	24.032593	57.250252
 482	4.8200e-001	23.345947	57.234923
 483	4.8300e-001	22.087097	57.219594
 484	4.8400e-001	20.513535	57.153170
 485	4.8500e-001	19.645691	57.173608
 486	4.8600e-001	18.253326	57.142951
 487	4.8700e-001	17.118454	57.015211
 488	4.8800e-001	16.040802	57.061198
