»»»»»»»»»»»»»»»»»»»»»»»»»»»»»»»»»»»» Hysteresis ««««««««««««««««««««««««««««««««««««
»»»  Executed Version:	5.16.2
»»»  Vision Version:	5.16.10 (R)
»»»  Vision Compiled:	4/26/18
»»»  Driver Version:	5.16.6
»»»  Windows Version:	Windows 8
»»»  Processor Information:	x86 (AMD or Intel) - 8 Processors
»»»  Tester Name:	PPM21016-863
»»»  Tester S/N:	PPM21016-863
»»»  Internal Amp Type:	 RTI ML200V    
»»»  Internal Amp S/N:	 iAB2-0000     
»»»  Execution Count:	1
»»»»»»»»»»»»»»»»»»»»»»»»»»»»»»»»»»»»»»»»»»««««««««««««««««««««««««««««««««««««««««««

Stored:	5/16/2018 - 10:4:40
Configured:	05/15/18 08:22:15 PM
Executed:	05/16/18 10:04:20 AM

»»»»»»»»»»»»»»»»»»»»»»»»»»»»»»»»»»» Sample Info ««««««««««««««««««««««««««««««««««««
Sample Name:	Internal Reference Cap.
Lot Name:	N/A
Wafer Name:	N/A
Die Row/Column:	0/0
Capacitor Number:	0
Sample Area (cm2):	7.85e-005
Sample Thickness (µm):	1.00e-001

Mux Loop Adjustment:	Disabled

Amplifier:	Internal

»»»»»»»»»»»»»»»»»»»»»»»»»»»»»»»»»»» Tester Info «««««««««««««««««««««««««««««««««««
Tester Name:	PPM21016-863
Tester Serial Number:	PPM21016-863
Return Signal Amp. Level:	0.19 [Index: 3]

»»»»»»»»»»»»»»»»»»»»»»»»»»»»»»»» Hysteresis Info ««««««««««««««««««««««««««««««««««
Task Name:	Hyst-1
Field (kV/cm):	0.03
Field:	300.00 (kV/cm)
Hysteresis Period (ms):	2.00e+000
Preset:	Enabled
Preset Delay (ms):	1.00e+003
Profile:	Double Bipolar

»»»»»»»»»»»»»»»»»»»»»»»»»»»»»»»»»»»»»» Data «««««««««««««««««««««««««««««««««««««««
Points:	2001

Valid Data

Point	Time (ms)	Field (kV/cm)	Measured Polarization
   1	1.0000e-003	0.465393	-34.969943
   2	2.0000e-003	1.365662	-35.005710
   3	3.0000e-003	2.517700	-35.072134
   4	4.0000e-003	3.715515	-34.913737
   5	5.0000e-003	4.989624	-34.785998
   6	6.0000e-003	6.225586	-34.969943
   7	7.0000e-003	7.331848	-34.453876
   8	8.0000e-003	8.453369	-34.668478
   9	9.0000e-003	9.620667	-34.550958
  10	1.0000e-002	11.016846	-34.387451
  11	1.1000e-002	12.550354	-34.351684
  12	1.2000e-002	13.496399	-34.295479
  13	1.3000e-002	14.366150	-34.469204
  14	1.4000e-002	15.769958	-34.239273
  15	1.5000e-002	16.906738	-34.183068
  16	1.6000e-002	18.356323	-33.462618
  17	1.7000e-002	19.271851	-33.917370
  18	1.8000e-002	20.591736	-33.861165
  19	1.9000e-002	21.697998	-33.324659
  20	2.0000e-002	23.040771	-33.186701
  21	2.1000e-002	24.070740	-33.171372
  22	2.2000e-002	24.833679	-32.895455
  23	2.3000e-002	26.557922	-32.777934
  24	2.4000e-002	27.717590	-32.445812
  25	2.5000e-002	28.907776	-32.052375
  26	2.6000e-002	29.869080	-31.965512
  27	2.7000e-002	31.257629	-31.612951
  28	2.8000e-002	32.493591	-31.510759
  29	2.9000e-002	33.447266	-31.081555
  30	3.0000e-002	34.843445	-30.647241
  31	3.1000e-002	35.964966	-30.754542
  32	3.2000e-002	37.246704	-30.039201
  33	3.3000e-002	38.482666	-29.609997
  34	3.4000e-002	39.718628	-29.809270
  35	3.5000e-002	40.870667	-28.823122
  36	3.6000e-002	42.053223	-28.480780
  37	3.7000e-002	43.365479	-27.990261
  38	3.8000e-002	44.235229	-26.861045
  39	3.9000e-002	45.692444	-27.218715
  40	4.0000e-002	46.936035	-26.712867
  41	4.1000e-002	48.057556	-26.069060
  42	4.2000e-002	49.194336	-25.455911
  43	4.3000e-002	50.552368	-24.873419
  44	4.4000e-002	51.536560	-24.382900
  45	4.5000e-002	52.665710	-23.897490
  46	4.6000e-002	54.252625	-22.783602
  47	4.7000e-002	55.175781	-22.308412
  48	4.8000e-002	56.304932	-21.720810
  49	4.9000e-002	57.762146	-20.852182
  50	5.0000e-002	58.311462	-20.356553
  51	5.1000e-002	59.959412	-18.992297
  52	5.2000e-002	61.111450	-18.169655
  53	5.3000e-002	62.294006	-17.265260
  54	5.4000e-002	63.560486	-15.957208
  55	5.5000e-002	64.659119	-14.879087
  56	5.6000e-002	66.169739	-13.770309
  57	5.7000e-002	66.986084	-12.589997
  58	5.8000e-002	68.367004	-11.445452
  59	5.9000e-002	70.014954	-9.887031
  60	6.0000e-002	72.128296	-8.292843
  61	6.1000e-002	71.662903	-7.168736
  62	6.2000e-002	73.074341	-5.896451
  63	6.3000e-002	74.325562	-4.067223
  64	6.4000e-002	75.424194	-2.539460
  65	6.5000e-002	76.568604	-0.909505
  66	6.6000e-002	77.674866	0.981039
  67	6.7000e-002	78.964233	2.835815
  68	6.8000e-002	79.521179	4.644605
  69	6.9000e-002	81.398010	6.857052
  70	7.0000e-002	82.527161	8.716938
  71	7.1000e-002	83.702087	10.658577
  72	7.2000e-002	84.930420	12.860805
  73	7.3000e-002	86.181641	15.083470
  74	7.4000e-002	87.341309	17.086424
  75	7.5000e-002	89.591980	20.213485
  76	7.6000e-002	89.691162	21.194524
  77	7.7000e-002	90.904236	23.468286
  78	7.8000e-002	92.010498	25.328172
  79	7.9000e-002	93.391418	27.407769
  80	8.0000e-002	94.635010	29.385175
  81	8.1000e-002	95.802307	30.923158
  82	8.2000e-002	96.984863	32.711510
  83	8.3000e-002	98.274231	34.351684
  84	8.4000e-002	99.601746	35.792585
  85	8.5000e-002	100.639343	35.746598
  86	8.6000e-002	101.928711	38.010141
  87	8.7000e-002	103.340149	39.216001
  88	8.8000e-002	104.347229	39.808712
  89	8.9000e-002	105.529785	40.421861
  90	9.0000e-002	106.567383	40.825518
  91	9.1000e-002	108.055115	41.781009
  92	9.2000e-002	109.222412	42.363500
  93	9.3000e-002	110.328674	42.542335
  94	9.4000e-002	111.648560	42.945992
  95	9.5000e-002	112.785339	43.201471
  96	9.6000e-002	113.586426	43.298553
  97	9.7000e-002	115.341187	43.410963
  98	9.8000e-002	116.348267	43.753305
  99	9.9000e-002	117.591858	43.993455
 100	1.0000e-001	118.972778	44.131414
 101	1.0100e-001	120.086670	44.754782
 102	1.0200e-001	121.093750	44.560618
 103	1.0300e-001	122.489929	44.652591
 104	1.0400e-001	123.748779	44.765001
 105	1.0500e-001	124.092102	45.541657
 106	1.0600e-001	126.022339	45.112452
 107	1.0700e-001	127.182007	45.040918
 108	1.0800e-001	128.501892	45.281069
 109	1.0900e-001	129.745483	45.321945
 110	1.1000e-001	130.912781	45.572314
 111	1.1100e-001	132.125854	45.720492
 112	1.1200e-001	133.483887	46.251888
 113	1.1300e-001	134.437561	45.945313
 114	1.1400e-001	135.612488	46.021957
 115	1.1500e-001	136.718750	45.986190
 116	1.1600e-001	138.160706	46.195683
 117	1.1700e-001	139.236450	46.078162
 118	1.1800e-001	140.518188	46.394956
 119	1.1900e-001	141.700745	46.384737
 120	1.2000e-001	142.456055	46.062834
 121	1.2100e-001	144.241333	46.655545
 122	1.2200e-001	145.240784	46.762846
 123	1.2300e-001	146.575928	46.885476
 124	1.2400e-001	147.781372	46.946791
 125	1.2500e-001	148.918152	47.094968
 126	1.2600e-001	150.123596	47.054092
 127	1.2700e-001	151.313782	47.181831
 128	1.2800e-001	152.503967	46.880366
 129	1.2900e-001	153.671265	47.784761
 130	1.3000e-001	154.869080	47.565049
 131	1.3100e-001	156.074524	47.626364
 132	1.3200e-001	157.379150	46.701531
 133	1.3300e-001	159.164429	47.948268
 134	1.3400e-001	159.744263	47.800090
 135	1.3500e-001	160.316467	48.101555
 136	1.3600e-001	162.330627	48.121993
 137	1.3700e-001	163.490295	48.065788
 138	1.3800e-001	164.581299	48.249733
 139	1.3900e-001	165.779114	48.438787
 140	1.4000e-001	166.725159	48.239513
 141	1.4100e-001	168.182373	48.443896
 142	1.4200e-001	169.296265	48.500102
 143	1.4300e-001	170.349121	48.602293
 144	1.4400e-001	171.722412	48.607403
 145	1.4500e-001	172.355652	48.740252
 146	1.4600e-001	174.041748	48.888430
 147	1.4700e-001	175.468445	49.016169
 148	1.4800e-001	176.567078	49.486250
 149	1.4900e-001	177.658081	49.051936
 150	1.5000e-001	179.023743	48.811786
 151	1.5100e-001	180.061340	49.200114
 152	1.5200e-001	180.969238	49.215443
 153	1.5300e-001	182.479858	49.338072
 154	1.5400e-001	183.860779	49.455593
 155	1.5500e-001	184.844971	49.465812
 156	1.5600e-001	186.279297	49.659976
 157	1.5700e-001	187.484741	49.654866
 158	1.5800e-001	188.583374	49.690633
 159	1.5900e-001	189.842224	49.828592
 160	1.6000e-001	190.452576	49.644647
 161	1.6100e-001	192.642212	50.329330
 162	1.6200e-001	193.389893	49.849030
 163	1.6300e-001	194.465637	50.043194
 164	1.6400e-001	196.067810	49.573113
 165	1.6500e-001	196.807861	50.222029
 166	1.6600e-001	198.066711	50.380426
 167	1.6700e-001	199.363708	50.390645
 168	1.6800e-001	200.347900	50.288454
 169	1.6900e-001	201.713562	50.416193
 170	1.7000e-001	202.598572	50.176043
 171	1.7100e-001	204.040527	50.661453
 172	1.7200e-001	205.429077	50.533713
 173	1.7300e-001	206.497192	50.799411
 174	1.7400e-001	207.580566	50.778973
 175	1.7500e-001	208.824158	50.518385
 176	1.7600e-001	210.075378	50.988466
 177	1.7700e-001	211.296082	50.942479
 178	1.7800e-001	212.562561	51.065109
 179	1.7900e-001	213.935852	50.211810
 180	1.8000e-001	214.653015	51.121315
 181	1.8100e-001	216.102600	51.310369
 182	1.8200e-001	217.308044	51.346136
 183	1.8300e-001	218.536377	51.325698
 184	1.8400e-001	219.726563	51.509642
 185	1.8500e-001	220.901489	51.570957
 186	1.8600e-001	222.091675	51.642491
 187	1.8700e-001	223.297119	51.494314
 188	1.8800e-001	224.533081	51.734464
 189	1.8900e-001	226.158142	51.857094
 190	1.9000e-001	226.921082	51.683368
 191	1.9100e-001	228.225708	51.908189
 192	1.9200e-001	229.385376	51.841765
 193	1.9300e-001	230.400085	52.138120
 194	1.9400e-001	231.361389	52.189216
 195	1.9500e-001	233.016968	52.107463
 196	1.9600e-001	234.031677	52.163668
 197	1.9700e-001	235.336304	52.276079
 198	1.9800e-001	236.167908	51.857094
 199	1.9900e-001	237.602234	52.408928
 200	2.0000e-001	239.006042	52.424257
 201	2.0100e-001	240.226746	52.495791
 202	2.0200e-001	241.241455	52.511120
 203	2.0300e-001	242.599487	52.444695
 204	2.0400e-001	243.881226	52.776818
 205	2.0500e-001	244.720459	52.465133
 206	2.0600e-001	246.025085	52.730831
 207	2.0700e-001	247.306824	52.623530
 208	2.0800e-001	248.481750	52.955653
 209	2.0900e-001	250.419617	53.609679
 210	2.1000e-001	250.907898	53.011858
 211	2.1100e-001	252.044678	53.206022
 212	2.1200e-001	253.379822	52.730831
 213	2.1300e-001	254.531860	53.154926
 214	2.1400e-001	255.767822	53.134488
 215	2.1500e-001	256.736755	53.272446
 216	2.1600e-001	258.049011	53.379748
 217	2.1700e-001	259.613037	53.558583
 218	2.1800e-001	260.566711	53.379748
 219	2.1900e-001	261.772156	53.594350
 220	2.2000e-001	262.870789	53.507487
 221	2.2100e-001	264.122009	53.676103
 222	2.2200e-001	265.251160	53.609679
 223	2.2300e-001	266.571045	53.599459
 224	2.2400e-001	268.112183	53.773185
 225	2.2500e-001	268.798828	54.018445
 226	2.2600e-001	270.942688	54.084869
 227	2.2700e-001	271.270752	53.977568
 228	2.2800e-001	272.560120	53.962239
 229	2.2900e-001	273.712158	54.105307
 230	2.3000e-001	275.016785	54.125746
 231	2.3100e-001	276.054382	54.049102
 232	2.3200e-001	277.290344	54.161513
 233	2.3300e-001	278.518677	54.365896
 234	2.3400e-001	279.823303	54.238156
 235	2.3500e-001	280.998230	54.089979
 236	2.3600e-001	282.012939	54.304581
 237	2.3700e-001	283.134460	54.376115
 238	2.3800e-001	284.416199	54.391444
 239	2.3900e-001	286.186218	54.933059
 240	2.4000e-001	286.827087	54.795100
 241	2.4100e-001	288.078308	54.800210
 242	2.4200e-001	289.253235	54.749114
 243	2.4300e-001	290.428162	54.682690
 244	2.4400e-001	291.656494	54.902401
 245	2.4500e-001	292.503357	54.682690
 246	2.4600e-001	294.090271	54.917730
 247	2.4700e-001	295.326233	55.071017
 248	2.4800e-001	296.524048	55.045470
 249	2.4900e-001	297.706604	55.004593
 250	2.5000e-001	298.744202	55.311168
 251	2.5100e-001	300.178528	55.178319
 252	2.5200e-001	299.278259	55.147661
 253	2.5300e-001	298.027039	55.132332
 254	2.5400e-001	296.958923	54.841086
 255	2.5500e-001	295.364380	55.168099
 256	2.5600e-001	294.456482	55.117004
 257	2.5700e-001	293.113708	55.214086
 258	2.5800e-001	291.923523	55.239633
 259	2.5900e-001	290.809631	55.137442
 260	2.6000e-001	289.512634	55.086346
 261	2.6100e-001	288.551331	55.203866
 262	2.6200e-001	287.223816	55.055689
 263	2.6300e-001	285.919189	55.101675
 264	2.6400e-001	285.476685	55.260072
 265	2.6500e-001	283.638000	55.025031
 266	2.6600e-001	282.379150	55.091456
 267	2.6700e-001	281.166077	55.086346
 268	2.6800e-001	281.593323	55.888550
 269	2.6900e-001	278.617859	55.147661
 270	2.7000e-001	277.648926	55.244743
 271	2.7100e-001	276.405334	54.958607
 272	2.7200e-001	275.123596	55.081237
 273	2.7300e-001	273.612976	54.943278
 274	2.7400e-001	272.865295	54.907511
 275	2.7500e-001	271.545410	54.789991
 276	2.7600e-001	270.385742	54.835977
 277	2.7700e-001	269.233704	55.050579
 278	2.7800e-001	267.883301	54.810429
 279	2.7900e-001	267.005920	55.464455
 280	2.8000e-001	265.495300	54.728676
 281	2.8100e-001	264.175415	54.861525
 282	2.8200e-001	262.924194	54.968826
 283	2.8300e-001	260.498047	54.181951
 284	2.8400e-001	260.955811	54.784881
 285	2.8500e-001	259.567261	55.106784
 286	2.8600e-001	258.232117	54.825758
 287	2.8700e-001	257.171631	54.580498
 288	2.8800e-001	255.981445	54.754224
 289	2.8900e-001	254.692078	54.703128
 290	2.9000e-001	253.677368	54.554950
 291	2.9100e-001	252.464294	54.631594
 292	2.9200e-001	250.892639	54.570279
 293	2.9300e-001	250.030518	54.575389
 294	2.9400e-001	248.146057	54.079760
 295	2.9500e-001	247.428894	54.902401
 296	2.9600e-001	246.459961	54.371005
 297	2.9700e-001	245.346069	54.611156
 298	2.9800e-001	244.071960	54.626484
 299	2.9900e-001	242.614746	54.508964
 300	3.0000e-001	241.661072	54.728676
 301	3.0100e-001	240.394592	54.340348
 302	3.0200e-001	239.265442	54.411882
 303	3.0300e-001	238.113403	54.473197
 304	3.0400e-001	236.778259	54.396553
 305	3.0500e-001	235.588074	54.452759
 306	3.0600e-001	234.291077	54.309691
 307	3.0700e-001	233.329773	54.355677
 308	3.0800e-001	231.925964	54.309691
 309	3.0900e-001	230.567932	54.652032
 310	3.1000e-001	229.957581	54.427211
 311	3.1100e-001	228.324890	54.345458
 312	3.1200e-001	227.294922	54.488526
 313	3.1300e-001	225.715637	54.018445
 314	3.1400e-001	224.754333	54.125746
 315	3.1500e-001	223.777771	54.396553
 316	3.1600e-001	222.259521	54.089979
 317	3.1700e-001	221.099854	54.100198
 318	3.1800e-001	220.039368	54.074650
 319	3.1900e-001	219.245911	54.488526
 320	3.2000e-001	217.689514	54.008225
 321	3.2100e-001	216.468811	53.957130
 322	3.2200e-001	215.209961	53.946911
 323	3.2300e-001	213.943481	54.049102
 324	3.2400e-001	212.699890	54.095088
 325	3.2500e-001	211.502075	54.391444
 326	3.2600e-001	210.166931	53.798733
 327	3.2700e-001	209.175110	53.768075
 328	3.2800e-001	208.038330	53.839609
 329	3.2900e-001	207.206726	54.059321
 330	3.3000e-001	205.474854	53.829390
 331	3.3100e-001	204.345703	53.803842
 332	3.3200e-001	203.208923	53.762966
 333	3.3300e-001	201.896667	53.604569
 334	3.3400e-001	200.737000	53.681213
 335	3.3500e-001	199.554443	53.563692
 336	3.3600e-001	198.341370	53.568802
 337	3.3700e-001	197.196960	53.701651
 338	3.3800e-001	196.479797	53.788514
 339	3.3900e-001	194.869995	53.517706
 340	3.4000e-001	193.634033	53.829390
 341	3.4100e-001	192.207336	53.497268
 342	3.4200e-001	191.352844	53.318433
 343	3.4300e-001	190.017700	53.282666
 344	3.4400e-001	188.796997	53.338871
 345	3.4500e-001	187.828064	53.400186
 346	3.4600e-001	186.378479	53.257118
 347	3.4700e-001	184.692383	53.114050
 348	3.4800e-001	184.135437	53.338871
 349	3.4900e-001	182.701111	52.879009
 350	3.5000e-001	181.709290	53.206022
 351	3.5100e-001	180.404663	53.119159
 352	3.5200e-001	179.161072	53.078283
 353	3.5300e-001	178.115845	53.108940
 354	3.5400e-001	176.841736	53.042516
 355	3.5500e-001	175.308228	52.551996
 356	3.5600e-001	174.255371	52.833023
 357	3.5700e-001	173.019409	53.027187
 358	3.5800e-001	171.958923	52.843242
 359	3.5900e-001	170.890808	52.960762
 360	3.6000e-001	167.915344	51.642491
 361	3.6100e-001	168.357849	52.884119
 362	3.6200e-001	167.411804	52.812585
 363	3.6300e-001	165.893555	52.730831
 364	3.6400e-001	164.627075	52.649078
 365	3.6500e-001	163.658142	52.735941
 366	3.6600e-001	161.964417	52.419147
 367	3.6700e-001	161.216736	52.495791
 368	3.6800e-001	160.057068	52.582654
 369	3.6900e-001	158.889771	52.475352
 370	3.7000e-001	157.661438	51.974614
 371	3.7100e-001	156.517029	52.424257
 372	3.7200e-001	155.097961	52.414038
 373	3.7300e-001	153.778076	52.301627
 374	3.7400e-001	152.755737	52.475352
 375	3.7500e-001	151.451111	51.913299
 376	3.7600e-001	150.184631	52.265860
 377	3.7700e-001	149.482727	52.199435
 378	3.7800e-001	148.040771	52.163668
 379	3.7900e-001	146.682739	52.122792
 380	3.8000e-001	145.729065	52.030819
 381	3.8100e-001	144.569397	52.025710
 382	3.8200e-001	143.104553	52.035929
 383	3.8300e-001	142.028809	51.867313
 384	3.8400e-001	140.518188	51.867313
 385	3.8500e-001	139.587402	51.851984
 386	3.8600e-001	138.389587	51.959285
 387	3.8700e-001	137.351990	52.041038
 388	3.8800e-001	135.993958	51.780450
 389	3.8900e-001	134.864807	51.632272
 390	3.9000e-001	133.651733	51.596505
 391	3.9100e-001	132.362366	51.642491
 392	3.9200e-001	130.935669	51.790669
 393	3.9300e-001	129.928589	51.816217
 394	3.9400e-001	128.906250	51.494314
 395	3.9500e-001	127.746582	51.387013
 396	3.9600e-001	126.518250	51.320588
 397	3.9700e-001	125.198364	51.330807
 398	3.9800e-001	124.153137	51.295040
 399	3.9900e-001	122.856140	51.203068
 400	4.0000e-001	121.620178	51.065109
 401	4.0100e-001	120.513916	51.197958
 402	4.0200e-001	118.881226	51.192849
 403	4.0300e-001	118.217468	50.334440
 404	4.0400e-001	116.828918	50.952699
 405	4.0500e-001	115.745544	50.916932
 406	4.0600e-001	114.364624	50.835178
 407	4.0700e-001	114.067078	50.656343
 408	4.0800e-001	111.709595	50.773863
 409	4.0900e-001	110.610962	50.722768
 410	4.1000e-001	109.519958	50.809630
 411	4.1100e-001	108.406067	50.641014
 412	4.1200e-001	106.849670	50.359988
 413	4.1300e-001	106.048584	50.523494
 414	4.1400e-001	104.972839	50.538823
 415	4.1500e-001	103.668213	51.141753
 416	4.1600e-001	102.455139	50.513275
 417	4.1700e-001	101.379395	49.854140
 418	4.1800e-001	99.922180	50.339549
 419	4.1900e-001	98.640442	50.411084
 420	4.2000e-001	97.724915	50.078961
 421	4.2100e-001	96.420288	50.692110
 422	4.2200e-001	95.352173	50.140276
 423	4.2300e-001	94.047546	49.578223
 424	4.2400e-001	92.636108	49.889907
 425	4.2500e-001	91.575623	49.833701
 426	4.2600e-001	90.454102	49.976769
 427	4.2700e-001	89.218140	49.762167
 428	4.2800e-001	87.837219	49.649757
 429	4.2900e-001	86.936951	49.659976
 430	4.3000e-001	85.731506	49.537346
 431	4.3100e-001	84.373474	49.700852
 432	4.3200e-001	83.099365	49.435154
 433	4.3300e-001	82.153320	49.501579
 434	4.3400e-001	80.703735	49.184785
 435	4.3500e-001	79.795837	49.562894
 436	4.3600e-001	78.414917	49.159237
 437	4.3700e-001	77.117920	49.179676
 438	4.3800e-001	75.996399	49.082594
 439	4.3900e-001	75.111389	49.149018
 440	4.4000e-001	73.524475	48.883320
 441	4.4100e-001	72.456360	48.903758
 442	4.4200e-001	71.159363	48.959964
 443	4.4300e-001	69.938660	48.776019
 444	4.4400e-001	68.878174	48.724923
 445	4.4500e-001	67.771912	48.479664
 446	4.4600e-001	66.307068	48.556307
 447	4.4700e-001	65.376282	48.571636
 448	4.4800e-001	64.018250	48.581855
 449	4.4900e-001	62.881470	48.147541
 450	4.5000e-001	60.882568	47.938048
 451	4.5100e-001	60.440063	48.224185
 452	4.5200e-001	59.165955	48.183308
 453	4.5300e-001	57.853699	48.142431
 454	4.5400e-001	56.457520	47.611035
 455	4.5500e-001	55.656433	48.091336
 456	4.5600e-001	54.389954	47.958487
 457	4.5700e-001	53.199768	47.375995
 458	4.5800e-001	51.322937	47.427091
 459	4.5900e-001	50.949097	47.626364
 460	4.6000e-001	49.568176	47.544611
 461	4.6100e-001	48.355103	47.345338
 462	4.6200e-001	47.149658	47.488406
 463	4.6300e-001	46.180725	47.284023
 464	4.6400e-001	44.746399	47.232927
 465	4.6500e-001	43.624878	47.360666
 466	4.6600e-001	42.396545	47.064311
 467	4.6700e-001	41.114807	46.890585
 468	4.6800e-001	39.764404	46.798613
 469	4.6900e-001	38.879395	46.875256
 470	4.7000e-001	37.689209	46.543134
 471	4.7100e-001	36.567688	46.752627
 472	4.7200e-001	35.263062	46.461381
 473	4.7300e-001	33.874512	46.400066
 474	4.7400e-001	32.768250	46.374518
 475	4.7500e-001	31.784058	46.369408
 476	4.7600e-001	30.113220	46.027067
 477	4.7700e-001	29.411316	45.991300
 478	4.7800e-001	28.221130	45.929985
 479	4.7900e-001	26.664734	45.802245
 480	4.8000e-001	25.619507	45.950423
 481	4.8100e-001	24.528503	45.526328
 482	4.8200e-001	23.208618	45.526328
 483	4.8300e-001	22.048950	45.490561
 484	4.8400e-001	20.812988	45.260630
 485	4.8500e-001	19.523621	45.321945
 486	4.8600e-001	18.867493	44.586166
 487	4.8700e-001	17.402649	44.887631
 488	4.8800e-001	15.937805	44.780330
