»»»»»»»»»»»»»»»»»»»»»»»»»»»»»»»»»»»» Hysteresis ««««««««««««««««««««««««««««««««««««
»»»  Executed Version:	5.16.2
»»»  Vision Version:	5.16.10 (R)
»»»  Vision Compiled:	4/26/18
»»»  Driver Version:	5.16.6
»»»  Windows Version:	Windows 8
»»»  Processor Information:	x86 (AMD or Intel) - 8 Processors
»»»  Tester Name:	PPM21016-863
»»»  Tester S/N:	PPM21016-863
»»»  Internal Amp Type:	 RTI ML200V    
»»»  Internal Amp S/N:	 iAB2-0000     
»»»  Execution Count:	1
»»»»»»»»»»»»»»»»»»»»»»»»»»»»»»»»»»»»»»»»»»««««««««««««««««««««««««««««««««««««««««««

Stored:	6/5/2018 - 7:45:6
Configured:	06/05/18 07:27:31 AM
Executed:	06/05/18 07:44:45 AM

»»»»»»»»»»»»»»»»»»»»»»»»»»»»»»»»»»» Sample Info ««««««««««««««««««««««««««««««««««««
Sample Name:	Internal Reference Cap.
Lot Name:	N/A
Wafer Name:	N/A
Die Row/Column:	0/0
Capacitor Number:	0
Sample Area (cm2):	6.20e-005
Sample Thickness (µm):	1.00e-001

Mux Loop Adjustment:	Disabled

Amplifier:	Internal

»»»»»»»»»»»»»»»»»»»»»»»»»»»»»»»»»»» Tester Info «««««««««««««««««««««««««««««««««««
Tester Name:	PPM21016-863
Tester Serial Number:	PPM21016-863
Return Signal Amp. Level:	1.79 [Index: 2]

»»»»»»»»»»»»»»»»»»»»»»»»»»»»»»»» Hysteresis Info ««««««««««««««««««««««««««««««««««
Task Name:	Hyst-1
Volts:	3.00
Field:	300.00 (kV/cm)
Hysteresis Period (ms):	2.00e+000
Preset:	Enabled
Preset Delay (ms):	1.00e+003
Profile:	Double Bipolar

»»»»»»»»»»»»»»»»»»»»»»»»»»»»»»»»»»»»»» Data «««««««««««««««««««««««««««««««««««««««
Points:	2001

Valid Data

Point	Time (ms)	Field (kV/cm)	Measured Polarization
   1	1.0000e-003	-0.137329	5.743710
   2	2.0000e-003	1.365662	5.799907
   3	3.0000e-003	2.365112	5.887628
   4	4.0000e-003	3.608704	5.971923
   5	5.0000e-003	4.898071	6.052792
   6	6.0000e-003	5.821228	6.150108
   7	7.0000e-003	7.072449	6.277578
   8	8.0000e-003	8.270264	6.405049
   9	9.0000e-003	9.666443	6.518127
  10	1.0000e-002	10.528564	6.630521
  11	1.1000e-002	11.985779	6.788145
  12	1.2000e-002	12.939453	6.960162
  13	1.3000e-002	14.183044	7.139032
  14	1.4000e-002	15.502930	7.352168
  15	1.5000e-002	16.670227	7.524870
  16	1.6000e-002	17.913818	7.725670
  17	1.7000e-002	18.959045	7.964163
  18	1.8000e-002	20.172119	8.216363
  19	1.9000e-002	21.278381	8.456227
  20	2.0000e-002	22.712708	8.727616
  21	2.1000e-002	23.712158	8.972277
  22	2.2000e-002	24.986267	9.249148
  23	2.3000e-002	26.420593	9.526705
  24	2.4000e-002	27.420044	9.861143
  25	2.5000e-002	28.465271	10.162686
  26	2.6000e-002	30.044556	10.471768
  27	2.7000e-002	31.257629	10.789759
  28	2.8000e-002	32.310486	11.108435
  29	2.9000e-002	33.660889	11.436020
  30	3.0000e-002	34.652710	11.774571
  31	3.1000e-002	35.873413	12.126143
  32	3.2000e-002	37.139893	12.449616
  33	3.3000e-002	38.230896	12.790223
  34	3.4000e-002	39.657593	13.130829
  35	3.5000e-002	40.542603	13.483772
  36	3.6000e-002	41.870117	13.835344
  37	3.7000e-002	43.113708	14.175265
  38	3.8000e-002	44.273376	14.532319
  39	3.9000e-002	45.494080	14.870185
  40	4.0000e-002	46.775818	15.227239
  41	4.1000e-002	47.904968	15.574699
  42	4.2000e-002	49.354553	15.924215
  43	4.3000e-002	50.415039	16.278528
  44	4.4000e-002	51.277161	16.610911
  45	4.5000e-002	52.680969	16.971392
  46	4.6000e-002	53.855896	17.301033
  47	4.7000e-002	55.061340	17.649178
  48	4.8000e-002	56.144714	18.000750
  49	4.9000e-002	57.403564	18.322167
  50	5.0000e-002	58.822632	18.651809
  51	5.1000e-002	59.951782	19.008178
  52	5.2000e-002	61.027527	19.351526
  53	5.3000e-002	62.553406	19.690076
  54	5.4000e-002	63.819885	20.046445
  55	5.5000e-002	64.834595	20.389793
  56	5.6000e-002	65.780640	20.730400
  57	5.7000e-002	67.108154	21.075118
  58	5.8000e-002	68.435669	21.434229
  59	5.9000e-002	69.625854	21.767297
  60	6.0000e-002	71.022034	22.138743
  61	6.1000e-002	72.029114	22.465643
  62	6.2000e-002	73.059082	22.809676
  63	6.3000e-002	74.272156	23.160563
  64	6.4000e-002	75.439453	23.515561
  65	6.5000e-002	76.835632	23.832181
  66	6.6000e-002	77.888489	24.168676
  67	6.7000e-002	79.360962	24.498317
  68	6.8000e-002	80.337524	24.829329
  69	6.9000e-002	81.626892	25.187069
  70	7.0000e-002	82.687378	25.539326
  71	7.1000e-002	83.763123	25.871024
  72	7.2000e-002	85.205078	26.186959
  73	7.3000e-002	86.318970	26.530306
  74	7.4000e-002	87.562561	26.858577
  75	7.5000e-002	88.661194	27.206037
  76	7.6000e-002	90.118408	27.521287
  77	7.7000e-002	90.972900	27.852299
  78	7.8000e-002	92.338562	28.166863
  79	7.9000e-002	93.490601	28.481427
  80	8.0000e-002	94.749451	28.803530
  81	8.1000e-002	96.160889	29.130430
  82	8.2000e-002	97.206116	29.399763
  83	8.3000e-002	98.449707	29.704732
  84	8.4000e-002	99.479675	29.984345
  85	8.5000e-002	100.860596	30.289315
  86	8.6000e-002	101.852417	30.586061
  87	8.7000e-002	103.080750	30.858820
  88	8.8000e-002	104.263306	31.149398
  89	8.9000e-002	105.506897	31.384464
  90	9.0000e-002	106.552124	31.688749
  91	9.1000e-002	107.963562	31.942319
  92	9.2000e-002	108.840942	32.211652
  93	9.3000e-002	110.237122	32.469334
  94	9.4000e-002	111.671448	32.706457
  95	9.5000e-002	112.640381	32.940152
  96	9.6000e-002	113.792419	33.164254
  97	9.7000e-002	115.173340	33.415768
  98	9.8000e-002	116.394043	33.636443
  99	9.9000e-002	117.645264	33.836558
 100	1.0000e-001	118.728638	34.051064
 101	1.0100e-001	119.743347	34.262830
 102	1.0200e-001	121.292114	34.462945
 103	1.0300e-001	122.413635	34.645927
 104	1.0400e-001	123.504639	34.828223
 105	1.0500e-001	124.664307	35.024911
 106	1.0600e-001	125.946045	35.194187
 107	1.0700e-001	127.227783	35.386078
 108	1.0800e-001	128.280640	35.545759
 109	1.0900e-001	129.699707	35.717090
 110	1.1000e-001	130.737305	35.860323
 111	1.1100e-001	131.813049	36.010409
 112	1.1200e-001	133.216858	36.176258
 113	1.1300e-001	134.422302	36.316064
 114	1.1400e-001	135.414124	36.450388
 115	1.1500e-001	136.909485	36.587453
 116	1.1600e-001	137.847900	36.713553
 117	1.1700e-001	139.183044	36.847876
 118	1.1800e-001	140.327454	36.968494
 119	1.1900e-001	141.624451	37.095279
 120	1.2000e-001	142.753601	37.199448
 121	1.2100e-001	144.042969	37.309785
 122	1.2200e-001	145.309448	37.429717
 123	1.2300e-001	146.484375	37.548964
 124	1.2400e-001	147.354126	37.652448
 125	1.2500e-001	148.674011	37.760729
 126	1.2600e-001	149.894714	37.853934
 127	1.2700e-001	151.329041	37.942341
 128	1.2800e-001	152.549744	38.047881
 129	1.2900e-001	153.602600	38.127378
 130	1.3000e-001	154.891968	38.234974
 131	1.3100e-001	155.937195	38.319269
 132	1.3200e-001	157.325745	38.383005
 133	1.3300e-001	158.485413	38.472097
 134	1.3400e-001	159.530640	38.553651
 135	1.3500e-001	160.758972	38.644113
 136	1.3600e-001	161.903381	38.712646
 137	1.3700e-001	163.154602	38.785976
 138	1.3800e-001	164.421082	38.868215
 139	1.3900e-001	165.306091	38.919614
 140	1.4000e-001	166.580200	39.008706
 141	1.4100e-001	167.945862	39.093001
 142	1.4200e-001	169.204712	39.160163
 143	1.4300e-001	170.372009	39.223899
 144	1.4400e-001	171.424866	39.284207
 145	1.4500e-001	172.706604	39.354110
 146	1.4600e-001	173.912048	39.420587
 147	1.4700e-001	175.102234	39.497343
 148	1.4800e-001	176.376343	39.563134
 149	1.4900e-001	177.604675	39.600827
 150	1.5000e-001	178.688049	39.663877
 151	1.5100e-001	179.847717	39.741319
 152	1.5200e-001	181.175232	39.794774
 153	1.5300e-001	182.136536	39.844118
 154	1.5400e-001	183.631897	39.909909
 155	1.5500e-001	184.860229	39.974330
 156	1.5600e-001	186.218262	40.036694
 157	1.5700e-001	187.088013	40.094261
 158	1.5800e-001	188.476563	40.152514
 159	1.5900e-001	189.674377	40.199116
 160	1.6000e-001	191.024780	40.253942
 161	1.6100e-001	191.894531	40.295062
 162	1.6200e-001	193.138123	40.362224
 163	1.6300e-001	194.328308	40.406770
 164	1.6400e-001	195.457458	40.473932
 165	1.6500e-001	196.632385	40.506827
 166	1.6600e-001	197.807312	40.558227
 167	1.6700e-001	199.195862	40.619220
 168	1.6800e-001	200.294495	40.665823
 169	1.6900e-001	201.469421	40.722019
 170	1.7000e-001	202.865601	40.761083
 171	1.7100e-001	203.781128	40.827559
 172	1.7200e-001	204.986572	40.859770
 173	1.7300e-001	206.291199	40.920078
 174	1.7400e-001	207.496643	40.968736
 175	1.7500e-001	208.869934	41.027674
 176	1.7600e-001	209.678650	41.064682
 177	1.7700e-001	211.341858	41.114025
 178	1.7800e-001	212.173462	41.151718
 179	1.7900e-001	213.562012	41.203803
 180	1.8000e-001	214.714050	41.252461
 181	1.8100e-001	216.186523	41.319623
 182	1.8200e-001	217.239380	41.327847
 183	1.8300e-001	218.421936	41.377190
 184	1.8400e-001	219.474792	41.427219
 185	1.8500e-001	220.726013	41.482730
 186	1.8600e-001	222.023010	41.523164
 187	1.8700e-001	223.167419	41.570452
 188	1.8800e-001	224.411011	41.615683
 189	1.8900e-001	225.395203	41.644467
 190	1.9000e-001	226.692200	41.715055
 191	1.9100e-001	228.012085	41.756860
 192	1.9200e-001	229.393005	41.797294
 193	1.9300e-001	230.339050	41.841841
 194	1.9400e-001	231.582642	41.873365
 195	1.9500e-001	232.635498	41.920653
 196	1.9600e-001	233.863831	41.964514
 197	1.9700e-001	235.221863	42.004948
 198	1.9800e-001	236.251831	42.079648
 199	1.9900e-001	237.548828	42.081019
 200	2.0000e-001	238.716125	42.124194
 201	2.0100e-001	239.906311	42.171482
 202	2.0200e-001	241.294861	42.229735
 203	2.0300e-001	242.561340	42.257148
 204	2.0400e-001	243.156433	42.277022
 205	2.0500e-001	244.705200	42.327736
 206	2.0600e-001	246.032715	42.366114
 207	2.0700e-001	247.154236	42.422996
 208	2.0800e-001	248.390198	42.468228
 209	2.0900e-001	249.580383	42.501809
 210	2.1000e-001	250.724792	42.543613
 211	2.1100e-001	252.067566	42.582677
 212	2.1200e-001	253.036499	42.618314
 213	2.1300e-001	254.287720	42.655321
 214	2.1400e-001	255.538940	42.696441
 215	2.1500e-001	256.752014	42.743043
 216	2.1600e-001	257.896423	42.773883
 217	2.1700e-001	258.956909	42.815688
 218	2.1800e-001	260.429382	42.843101
 219	2.1900e-001	261.482239	42.889017
 220	2.2000e-001	262.657166	42.928081
 221	2.2100e-001	263.938904	42.963032
 222	2.2200e-001	265.098572	43.011691
 223	2.2300e-001	266.479492	43.034992
 224	2.2400e-001	267.555237	43.076111
 225	2.2500e-001	268.745422	43.119972
 226	2.2600e-001	270.011902	43.153553
 227	2.2700e-001	270.973206	43.200840
 228	2.2800e-001	272.270203	43.234421
 229	2.2900e-001	273.590088	43.276226
 230	2.3000e-001	274.673462	43.307066
 231	2.3100e-001	275.802612	43.336535
 232	2.3200e-001	277.305603	43.379710
 233	2.3300e-001	278.076172	43.401641
 234	2.3400e-001	279.472351	43.458522
 235	2.3500e-001	280.784607	43.499642
 236	2.3600e-001	282.035828	43.524999
 237	2.3700e-001	283.325195	43.567489
 238	2.3800e-001	284.255981	43.597643
 239	2.3900e-001	285.514832	43.610665
 240	2.4000e-001	286.735535	43.657267
 241	2.4100e-001	287.910461	43.720317
 242	2.4200e-001	289.237976	43.743618
 243	2.4300e-001	290.428162	43.777884
 244	2.4400e-001	291.534424	43.808724
 245	2.4500e-001	292.892456	43.849158
 246	2.4600e-001	293.945313	43.878627
 247	2.4700e-001	295.204163	43.916320
 248	2.4800e-001	296.478271	43.952642
 249	2.4900e-001	297.569275	43.975943
 250	2.5000e-001	298.698425	44.006783
 251	2.5100e-001	299.957275	44.056126
 252	2.5200e-001	298.797607	44.022545
 253	2.5300e-001	297.607422	44.006783
 254	2.5400e-001	296.356201	43.997188
 255	2.5500e-001	295.112610	43.960866
 256	2.5600e-001	293.739319	43.927285
 257	2.5700e-001	292.480469	43.913578
 258	2.5800e-001	291.427612	43.898501
 259	2.5900e-001	290.283203	43.856011
 260	2.6000e-001	289.306641	43.833395
 261	2.6100e-001	288.246155	43.791591
 262	2.6200e-001	286.613464	43.781311
 263	2.6300e-001	285.697937	43.758695
 264	2.6400e-001	284.362793	43.725114
 265	2.6500e-001	283.378601	43.695645
 266	2.6600e-001	281.974792	43.666176
 267	2.6700e-001	280.769348	43.646302
 268	2.6800e-001	279.525757	43.604497
 269	2.6900e-001	278.366089	43.587364
 270	2.7000e-001	277.229309	43.552412
 271	2.7100e-001	275.894165	43.543503
 272	2.7200e-001	274.566650	43.504439
 273	2.7300e-001	273.475647	43.467432
 274	2.7400e-001	272.308350	43.446872
 275	2.7500e-001	271.087646	43.422886
 276	2.7600e-001	269.996643	43.387249
 277	2.7700e-001	268.516541	43.363948
 278	2.7800e-001	267.440796	43.318031
 279	2.7900e-001	266.197205	43.330367
 280	2.8000e-001	264.984131	43.259778
 281	2.8100e-001	263.763428	43.243330
 282	2.8200e-001	262.847900	43.210435
 283	2.8300e-001	261.436462	43.172057
 284	2.8400e-001	260.299683	43.136420
 285	2.8500e-001	259.132385	43.126825
 286	2.8600e-001	257.972717	43.083650
 287	2.8700e-001	256.660461	43.074055
 288	2.8800e-001	255.485535	43.032936
 289	2.8900e-001	254.257202	43.009635
 290	2.9000e-001	253.318787	42.971942
 291	2.9100e-001	251.960754	42.951382
 292	2.9200e-001	250.976563	42.915060
 293	2.9300e-001	249.649048	42.893815
 294	2.9400e-001	248.092651	42.843101
 295	2.9500e-001	247.169495	42.819114
 296	2.9600e-001	246.086121	42.792386
 297	2.9700e-001	244.667053	42.736875
 298	2.9800e-001	243.499756	42.740987
 299	2.9900e-001	242.271423	42.695070
 300	3.0000e-001	241.127014	42.677937
 301	3.0100e-001	239.997864	42.632020
 302	3.0200e-001	238.746643	42.597754
 303	3.0300e-001	237.533569	42.561432
 304	3.0400e-001	236.503601	42.538816
 305	3.0500e-001	235.313416	42.504550
 306	3.0600e-001	233.802795	42.460004
 307	3.0700e-001	232.734680	42.429164
 308	3.0800e-001	231.582642	42.412716
 309	3.0900e-001	230.186462	42.382562
 310	3.1000e-001	229.362488	42.340757
 311	3.1100e-001	227.821350	42.309918
 312	3.1200e-001	226.776123	42.257148
 313	3.1300e-001	225.379944	42.245497
 314	3.1400e-001	224.494934	42.205748
 315	3.1500e-001	223.060608	42.198210
 316	3.1600e-001	221.900940	42.131048
 317	3.1700e-001	220.542908	42.106376
 318	3.1800e-001	219.406128	42.069368
 319	3.1900e-001	218.406677	42.037843
 320	3.2000e-001	217.163086	42.004948
 321	3.2100e-001	215.812683	41.967940
 322	3.2200e-001	214.752197	41.937786
 323	3.2300e-001	213.432312	41.891869
 324	3.2400e-001	212.089539	41.876792
 325	3.2500e-001	211.372375	41.830875
 326	3.2600e-001	209.831238	41.797980
 327	3.2700e-001	208.892822	41.776049
 328	3.2800e-001	207.504272	41.726021
 329	3.2900e-001	206.451416	41.678048
 330	3.3000e-001	205.230713	41.640355
 331	3.3100e-001	203.880310	41.626648
 332	3.3200e-001	202.819824	41.573193
 333	3.3300e-001	201.538086	41.507402
 334	3.3400e-001	200.416565	41.508087
 335	3.3500e-001	199.104309	41.469024
 336	3.3600e-001	198.089600	41.414883
 337	3.3700e-001	196.754456	41.392953
 338	3.3800e-001	195.648193	41.355260
 339	3.3900e-001	194.465637	41.313455
 340	3.4000e-001	192.985535	41.273021
 341	3.4100e-001	192.001343	41.236013
 342	3.4200e-001	190.673828	41.227104
 343	3.4300e-001	189.659119	41.168851
 344	3.4400e-001	188.461304	41.128417
 345	3.4500e-001	187.072754	41.085242
 346	3.4600e-001	185.989380	41.031786
 347	3.4700e-001	184.745789	41.011226
 348	3.4800e-001	183.563232	40.974219
 349	3.4900e-001	182.228088	40.924875
 350	3.5000e-001	181.121826	40.885127
 351	3.5100e-001	179.847717	40.858399
 352	3.5200e-001	178.634644	40.800832
 353	3.5300e-001	177.589417	40.770677
 354	3.5400e-001	176.635742	40.730928
 355	3.5500e-001	175.239563	40.680214
 356	3.5600e-001	173.927307	40.641151
 357	3.5700e-001	172.775269	40.556171
 358	3.5800e-001	171.684265	40.572618
 359	3.5900e-001	170.234680	40.521904
 360	3.6000e-001	169.052124	40.476673
 361	3.6100e-001	168.037415	40.428015
 362	3.6200e-001	166.671753	40.386895
 363	3.6300e-001	165.435791	40.347832
 364	3.6400e-001	164.337158	40.298488
 365	3.6500e-001	163.047791	40.269705
 366	3.6600e-001	162.048340	40.213508
 367	3.6700e-001	160.484314	40.165535
 368	3.6800e-001	159.805298	40.112765
 369	3.6900e-001	158.172607	40.053142
 370	3.7000e-001	157.112122	40.033267
 371	3.7100e-001	156.051636	39.998316
 372	3.7200e-001	154.556274	39.955826
 373	3.7300e-001	153.694153	39.907168
 374	3.7400e-001	152.572632	39.844803
 375	3.7500e-001	151.023865	39.810537
 376	3.7600e-001	149.963379	39.760508
 377	3.7700e-001	148.765564	39.715277
 378	3.7800e-001	147.636414	39.660451
 379	3.7900e-001	146.385193	39.615219
 380	3.8000e-001	145.263672	39.563134
 381	3.8100e-001	143.959045	39.515847
 382	3.8200e-001	142.730713	39.471301
 383	3.8300e-001	141.548157	39.414419
 384	3.8400e-001	140.426636	39.378097
 385	3.8500e-001	139.045715	39.312991
 386	3.8600e-001	138.259888	39.291746
 387	3.8700e-001	136.894226	39.214989
 388	3.8800e-001	135.650635	39.171814
 389	3.8900e-001	134.437561	39.103967
 390	3.9000e-001	133.293152	39.042973
 391	3.9100e-001	131.813049	39.012818
 392	3.9200e-001	130.805969	38.948398
 393	3.9300e-001	129.447937	38.893572
 394	3.9400e-001	128.417969	38.840116
 395	3.9500e-001	127.204895	38.793514
 396	3.9600e-001	125.793457	38.738688
 397	3.9700e-001	124.580383	38.664673
 398	3.9800e-001	123.565674	38.638631
 399	3.9900e-001	122.406006	38.581064
 400	4.0000e-001	121.307373	38.502936
 401	4.0100e-001	119.697571	38.446054
 402	4.0200e-001	118.827820	38.398082
 403	4.0300e-001	117.424011	38.340514
 404	4.0400e-001	116.256714	38.263073
 405	4.0500e-001	115.135193	38.200023
 406	4.0600e-001	113.945007	38.156162
 407	4.0700e-001	112.892151	38.084203
 408	4.0800e-001	111.488342	38.030747
 409	4.0900e-001	110.153198	37.958103
 410	4.1000e-001	109.123230	37.897109
 411	4.1100e-001	108.146667	37.838856
 412	4.1200e-001	106.521606	37.754561
 413	4.1300e-001	105.377197	37.705903
 414	4.1400e-001	104.408264	37.640797
 415	4.1500e-001	103.096008	37.581174
 416	4.1600e-001	101.699829	37.493453
 417	4.1700e-001	100.837708	37.418752
 418	4.1800e-001	99.571228	37.342681
 419	4.1900e-001	98.320007	37.288540
 420	4.2000e-001	96.969604	37.201504
 421	4.2100e-001	96.000671	37.137083
 422	4.2200e-001	94.665527	37.069922
 423	4.2300e-001	93.566895	36.959584
 424	4.2400e-001	92.254639	36.904758
 425	4.2500e-001	91.255188	36.831428
 426	4.2600e-001	89.859009	36.745763
 427	4.2700e-001	88.806152	36.650503
 428	4.2800e-001	87.738037	36.574432
 429	4.2900e-001	86.624146	36.475059
 430	4.3000e-001	85.372925	36.399674
 431	4.3100e-001	83.747864	36.298246
 432	4.3200e-001	82.733154	36.226286
 433	4.3300e-001	81.657410	36.122802
 434	4.3400e-001	80.505371	36.017262
 435	4.3500e-001	79.139709	35.917890
 436	4.3600e-001	78.269958	35.795217
 437	4.3700e-001	76.835632	35.716404
 438	4.3800e-001	75.614929	35.596473
 439	4.3900e-001	74.478149	35.493674
 440	4.4000e-001	73.066711	35.365518
 441	4.4100e-001	72.044373	35.268887
 442	4.4200e-001	70.808411	35.137990
 443	4.4300e-001	69.305420	35.015317
 444	4.4400e-001	68.321228	34.878252
 445	4.4500e-001	67.306519	34.775453
 446	4.4600e-001	65.933228	34.615087
 447	4.4700e-001	64.918518	34.492414
 448	4.4800e-001	63.629150	34.332048
 449	4.4900e-001	62.522888	34.197724
 450	4.5000e-001	61.187744	34.016798
 451	4.5100e-001	59.951782	33.878362
 452	4.5200e-001	58.746338	33.713884
 453	4.5300e-001	57.746887	33.552148
 454	4.5400e-001	56.365967	33.358201
 455	4.5500e-001	55.030823	33.177960
 456	4.5600e-001	54.130554	32.993608
 457	4.5700e-001	52.795410	32.789381
 458	4.5800e-001	51.452637	32.608455
 459	4.5900e-001	50.476074	32.394634
 460	4.6000e-001	49.201965	32.196575
 461	4.6100e-001	47.897339	31.962879
 462	4.6200e-001	46.722412	31.739463
 463	4.6300e-001	45.295715	31.468759
 464	4.6400e-001	44.448853	31.247399
 465	4.6500e-001	43.395996	31.006165
 466	4.6600e-001	42.106628	30.747797
 467	4.6700e-001	40.702820	30.464758
 468	4.6800e-001	39.604187	30.185145
 469	4.6900e-001	38.253784	29.900735
 470	4.7000e-001	37.033081	29.623179
 471	4.7100e-001	36.231995	29.320265
 472	4.7200e-001	34.881592	29.000218
 473	4.7300e-001	33.470154	28.684969
 474	4.7400e-001	32.417297	28.341621
 475	4.7500e-001	31.150818	28.034595
 476	4.7600e-001	30.227661	27.667946
 477	4.7700e-001	28.938293	27.337619
 478	4.7800e-001	27.305603	26.964803
 479	4.7900e-001	26.283264	26.595412
 480	4.8000e-001	25.100708	26.182847
 481	4.8100e-001	24.131775	25.855947
 482	4.8200e-001	22.865295	25.441325
 483	4.8300e-001	21.537781	25.030815
 484	4.8400e-001	20.324707	24.611396
 485	4.8500e-001	19.119263	24.182383
 486	4.8600e-001	18.104553	23.776670
 487	4.8700e-001	16.815186	23.339433
 488	4.8800e-001	15.716553	22.914531
 489	4.8900e-001	14.289856	22.473182
 490	4.9000e-001	13.137817	22.019496
