»»»»»»»»»»»»»»»»»»»»»»»»»»»»»»»»»»»» Hysteresis ««««««««««««««««««««««««««««««««««««
»»»  Executed Version:	5.12.0
»»»  Vision Version:	5.12.5 (R)
»»»  Vision Compiled:	2/24/17
»»»  Driver Version:	5.12.4
»»»  Windows Version:	Windows 7
»»»  Processor Information:	x86 (AMD or Intel) - 2 Processors
»»»  Tester Name:	PMF0910-256
»»»  Tester S/N:	PMF0910-256
»»»  Internal Amp Type:	 RTI 100V      
»»»  Internal Amp S/N:	 iAB1-0000     
»»»  Execution Count:	1
»»»»»»»»»»»»»»»»»»»»»»»»»»»»»»»»»»»»»»»»»»««««««««««««««««««««««««««««««««««««««««««

Stored:	8/3/2017 - 10:50:57
Configured:	08/03/17 10:04:09 AM
Executed:	08/03/17 10:50:39 AM

»»»»»»»»»»»»»»»»»»»»»»»»»»»»»»»»»»» Sample Info ««««««««««««««««««««««««««««««««««««
Sample Name:	
Lot Name:	
Wafer Name:	
Die Row/Column:	0/0
Capacitor Number:	0
Sample Area (cm2):	4.91e-006
Sample Thickness (µm):	1.00e-001

Mux Loop Adjustment:	Disabled

Amplifier:	Internal

»»»»»»»»»»»»»»»»»»»»»»»»»»»»»»»»»»» Tester Info «««««««««««««««««««««««««««««««««««
Tester Name:	PMF0910-256
Tester Serial Number:	PMF0910-256
Return Signal Amp. Level:	16.67 [Index: 1]

»»»»»»»»»»»»»»»»»»»»»»»»»»»»»»»» Hysteresis Info ««««««««««««««««««««««««««««««««««
Task Name:	Hyst-1
Volts:	3.00
Field:	300.00 (kV/cm)
Hysteresis Period (ms):	1.60e+001
Preset:	Enabled
Preset Delay (ms):	1.00e+003
Profile:	Double Bipolar

»»»»»»»»»»»»»»»»»»»»»»»»»»»»»»»»»»»»»» Data «««««««««««««««««««««««««««««««««««««««
Points:	2001

Valid Data

Point	Time (ms)	Drive Voltage	Measured Polarization
   1	8.0000e-003	-0.0019	-10.415504
   2	1.6000e-002	0.0096	-10.260706
   3	2.4000e-002	0.0217	-10.323738
   4	3.2000e-002	0.0353	-10.191186
   5	4.0000e-002	0.0461	-10.167086
   6	4.8000e-002	0.0589	-10.032680
   7	5.6000e-002	0.0696	-9.856562
   8	6.4000e-002	0.0853	-9.831535
   9	7.2000e-002	0.0932	-9.388460
  10	8.0000e-002	0.1061	-9.085353
  11	8.8000e-002	0.1194	-8.774829
  12	9.6000e-002	0.1291	-8.508799
  13	1.0400e-001	0.1417	-8.268723
  14	1.1200e-001	0.1556	-7.899803
  15	1.2000e-001	0.1680	-7.558691
  16	1.2800e-001	0.1801	-6.985845
  17	1.3600e-001	0.1900	-6.894078
  18	1.4400e-001	0.2015	-6.235028
  19	1.5200e-001	0.2147	-5.959728
  20	1.6000e-001	0.2270	-5.298823
  21	1.6800e-001	0.2382	-4.951223
  22	1.7600e-001	0.2493	-4.487755
  23	1.8400e-001	0.2619	-4.048388
  24	1.9200e-001	0.2731	-3.594190
  25	2.0000e-001	0.2843	-3.013002
  26	2.0800e-001	0.2983	-2.655205
  27	2.1600e-001	0.3093	-2.112948
  28	2.2400e-001	0.3210	-1.599426
  29	2.3200e-001	0.3349	-1.095174
  30	2.4000e-001	0.3461	-0.579798
  31	2.4800e-001	0.3560	-0.081107
  32	2.5600e-001	0.3701	0.566821
  33	2.6400e-001	0.3812	0.961695
  34	2.7200e-001	0.3933	1.622600
  35	2.8000e-001	0.4064	1.994300
  36	2.8800e-001	0.4177	2.640374
  37	2.9600e-001	0.4316	3.022271
  38	3.0400e-001	0.4412	3.558967
  39	3.1200e-001	0.4554	4.059511
  40	3.2000e-001	0.4674	4.611038
  41	3.2800e-001	0.4794	5.363709
  42	3.3600e-001	0.4907	5.800295
  43	3.4400e-001	0.5029	6.498277
  44	3.5200e-001	0.5138	6.864416
  45	3.6000e-001	0.5267	7.487317
  46	3.6800e-001	0.5393	7.739443
  47	3.7600e-001	0.5511	8.389224
  48	3.8400e-001	0.5626	8.743314
  49	3.9200e-001	0.5753	9.297621
  50	4.0000e-001	0.5886	9.974283
  51	4.0800e-001	0.5988	10.421066
  52	4.1600e-001	0.6111	10.942003
  53	4.2400e-001	0.6235	11.294238
  54	4.3200e-001	0.6358	11.820737
  55	4.4000e-001	0.6461	12.069156
  56	4.4800e-001	0.6598	12.636440
  57	4.5600e-001	0.6714	13.137912
  58	4.6400e-001	0.6826	13.659776
  59	4.7200e-001	0.6921	14.280823
  60	4.8000e-001	0.7056	14.647889
  61	4.8800e-001	0.7173	15.265228
  62	4.9600e-001	0.7305	15.393145
  63	5.0400e-001	0.7455	15.899251
  64	5.1200e-001	0.7535	16.044780
  65	5.2000e-001	0.7687	16.723296
  66	5.2800e-001	0.7780	17.133928
  67	5.3600e-001	0.7923	17.706774
  68	5.4400e-001	0.8031	18.238835
  69	5.5200e-001	0.8163	18.567897
  70	5.6000e-001	0.8260	19.068442
  71	5.6800e-001	0.8381	19.307591
  72	5.7600e-001	0.8497	19.745104
  73	5.8400e-001	0.8639	19.967568
  74	5.9200e-001	0.8764	20.425474
  75	6.0000e-001	0.8879	20.895430
  76	6.0800e-001	0.8987	21.448810
  77	6.1600e-001	0.9110	21.834415
  78	6.2400e-001	0.9223	22.180162
  79	6.3200e-001	0.9348	22.585233
  80	6.4000e-001	0.9460	22.948591
  81	6.4800e-001	0.9570	23.227599
  82	6.5600e-001	0.9707	23.591884
  83	6.6400e-001	0.9836	24.005297
  84	6.7200e-001	0.9964	24.580923
  85	6.8000e-001	1.0073	24.981359
  86	6.8800e-001	1.0194	25.424434
  87	6.9600e-001	1.0321	25.727542
  88	7.0400e-001	1.0427	26.110366
  89	7.1200e-001	1.0521	26.455186
  90	7.2000e-001	1.0696	26.826887
  91	7.2800e-001	1.0784	27.117944
  92	7.3600e-001	1.0902	27.726014
  93	7.4400e-001	1.1018	28.018925
  94	7.5200e-001	1.1136	28.608456
  95	7.6000e-001	1.1272	28.881901
  96	7.6800e-001	1.1392	29.226721
  97	7.7600e-001	1.1478	29.368542
  98	7.8400e-001	1.1612	29.932119
  99	7.9200e-001	1.1756	30.263961
 100	8.0000e-001	1.1874	30.713525
 101	8.0800e-001	1.1988	31.043514
 102	8.1600e-001	1.2113	31.281736
 103	8.2400e-001	1.2246	31.499566
 104	8.3200e-001	1.2357	31.684026
 105	8.4000e-001	1.2478	31.844385
 106	8.4800e-001	1.2598	31.941714
 107	8.5600e-001	1.2688	32.247602
 108	8.6400e-001	1.2807	32.335661
 109	8.7200e-001	1.2950	32.585006
 110	8.8000e-001	1.3078	32.710143
 111	8.8800e-001	1.3197	32.763905
 112	8.9600e-001	1.3326	33.014177
 113	9.0400e-001	1.3425	32.927045
 114	9.1200e-001	1.3528	32.982662
 115	9.2000e-001	1.3656	32.954853
 116	9.2800e-001	1.3771	33.122629
 117	9.3600e-001	1.3900	33.104090
 118	9.4400e-001	1.4017	33.349728
 119	9.5200e-001	1.4155	33.286696
 120	9.6000e-001	1.4294	33.425736
 121	9.6800e-001	1.4411	33.426663
 122	9.7600e-001	1.4478	33.352509
 123	9.8400e-001	1.4656	33.388659
 124	9.9200e-001	1.4742	33.384951
 125	1.0000e+000	1.4851	33.650982
 126	1.0080e+000	1.4983	33.588877
 127	1.0160e+000	1.5087	33.831734
 128	1.0240e+000	1.5212	33.568484
 129	1.0320e+000	1.5352	33.734406
 130	1.0400e+000	1.5476	33.648201
 131	1.0480e+000	1.5589	33.758506
 132	1.0560e+000	1.5702	33.757579
 133	1.0640e+000	1.5815	33.856761
 134	1.0720e+000	1.5953	33.961505
 135	1.0800e+000	1.6068	33.994874
 136	1.0880e+000	1.6205	34.117230
 137	1.0960e+000	1.6298	33.999509
 138	1.1040e+000	1.6418	34.015267
 139	1.1120e+000	1.6530	34.053271
 140	1.1200e+000	1.6652	34.085714
 141	1.1280e+000	1.6787	34.134842
 142	1.1360e+000	1.6893	34.059760
 143	1.1440e+000	1.7036	34.235878
 144	1.1520e+000	1.7142	34.247928
 145	1.1600e+000	1.7266	34.424972
 146	1.1680e+000	1.7366	34.321156
 147	1.1760e+000	1.7510	34.356379
 148	1.1840e+000	1.7623	34.183042
 149	1.1920e+000	1.7746	34.310032
 150	1.2000e+000	1.7855	34.386041
 151	1.2080e+000	1.7966	34.492639
 152	1.2160e+000	1.8121	34.532497
 153	1.2240e+000	1.8215	34.540839
 154	1.2320e+000	1.8346	34.603871
 155	1.2400e+000	1.8475	34.507469
 156	1.2480e+000	1.8585	34.584405
 157	1.2560e+000	1.8697	34.545474
 158	1.2640e+000	1.8826	34.619629
 159	1.2720e+000	1.8931	34.688222
 160	1.2800e+000	1.9070	34.799454
 161	1.2880e+000	1.9170	34.759596
 162	1.2960e+000	1.9296	34.771646
 163	1.3040e+000	1.9431	34.868047
 164	1.3120e+000	1.9546	34.684514
 165	1.3200e+000	1.9662	34.878243
 166	1.3280e+000	1.9802	34.855070
 167	1.3360e+000	1.9900	34.871755
 168	1.3440e+000	2.0026	34.870828
 169	1.3520e+000	2.0141	34.907905
 170	1.3600e+000	2.0264	35.012649
 171	1.3680e+000	2.0399	34.953325
 172	1.3760e+000	2.0522	35.235113
 173	1.3840e+000	2.0640	34.930152
 174	1.3920e+000	2.0741	35.060850
 175	1.4000e+000	2.0873	35.022845
 176	1.4080e+000	2.0987	35.160032
 177	1.4160e+000	2.1096	35.070119
 178	1.4240e+000	2.1220	35.185059
 179	1.4320e+000	2.1359	35.167447
 180	1.4400e+000	2.1450	35.195255
 181	1.4480e+000	2.1597	35.248090
 182	1.4560e+000	2.1720	35.215648
 183	1.4640e+000	2.1841	35.133151
 184	1.4720e+000	2.1923	35.331515
 185	1.4800e+000	2.2097	35.402889
 186	1.4880e+000	2.2187	35.307414
 187	1.4960e+000	2.2311	35.295364
 188	1.5040e+000	2.2419	35.317611
 189	1.5120e+000	2.2538	35.325953
 190	1.5200e+000	2.2651	35.445528
 191	1.5280e+000	2.2794	35.449235
 192	1.5360e+000	2.2911	35.320391
 193	1.5440e+000	2.3019	35.493728
 194	1.5520e+000	2.3144	35.564175
 195	1.5600e+000	2.3244	35.476116
 196	1.5680e+000	2.3389	35.386204
 197	1.5760e+000	2.3502	35.402889
 198	1.5840e+000	2.3612	35.432551
 199	1.5920e+000	2.3736	35.736585
 200	1.6000e+000	2.3889	35.597545
 201	1.6080e+000	2.3988	35.610522
 202	1.6160e+000	2.4114	35.695800
 203	1.6240e+000	2.4236	35.721754
 204	1.6320e+000	2.4343	35.667065
 205	1.6400e+000	2.4453	35.676334
 206	1.6480e+000	2.4599	35.640184
 207	1.6560e+000	2.4720	35.629988
 208	1.6640e+000	2.4819	35.811667
 209	1.6720e+000	2.4955	35.745855
 210	1.6800e+000	2.5073	35.801471
 211	1.6880e+000	2.5193	35.924753
 212	1.6960e+000	2.5312	35.860794
 213	1.7040e+000	2.5449	35.875625
 214	1.7120e+000	2.5559	35.808886
 215	1.7200e+000	2.5661	35.919191
 216	1.7280e+000	2.5808	35.835767
 217	1.7360e+000	2.5880	35.988711
 218	1.7440e+000	2.6006	35.953488
 219	1.7520e+000	2.6142	36.096236
 220	1.7600e+000	2.6290	36.007250
 221	1.7680e+000	2.6403	35.923826
 222	1.7760e+000	2.6519	35.925680
 223	1.7840e+000	2.6624	35.971100
 224	1.7920e+000	2.6760	35.999835
 225	1.8000e+000	2.6858	36.078624
 226	1.8080e+000	2.6986	36.093455
 227	1.8160e+000	2.7120	36.125898
 228	1.8240e+000	2.7225	36.161121
 229	1.8320e+000	2.7345	36.154633
 230	1.8400e+000	2.7457	36.177806
 231	1.8480e+000	2.7596	36.073063
 232	1.8560e+000	2.7714	36.145363
 233	1.8640e+000	2.7851	36.193564
 234	1.8720e+000	2.7959	36.158341
 235	1.8800e+000	2.8076	36.263084
 236	1.8880e+000	2.8202	36.397490
 237	1.8960e+000	2.8315	36.322408
 238	1.9040e+000	2.8424	36.288111
 239	1.9120e+000	2.8548	36.304796
 240	1.9200e+000	2.8667	36.213957
 241	1.9280e+000	2.8822	36.160194
 242	1.9360e+000	2.8896	36.331677
 243	1.9440e+000	2.9020	36.383586
 244	1.9520e+000	2.9163	36.492964
 245	1.9600e+000	2.9263	36.461448
 246	1.9680e+000	2.9411	36.517991
 247	1.9760e+000	2.9530	36.359485
 248	1.9840e+000	2.9639	36.465156
 249	1.9920e+000	2.9752	36.499453
 250	2.0000e+000	2.9873	36.496672
 251	2.0080e+000	3.0006	36.525407
 252	2.0160e+000	2.9880	36.489256
 253	2.0240e+000	2.9749	36.459594
 254	2.0320e+000	2.9633	36.462375
 255	2.0400e+000	2.9516	36.493891
 256	2.0480e+000	2.9372	36.573607
 257	2.0560e+000	2.9270	36.459594
 258	2.0640e+000	2.9153	36.406759
 259	2.0720e+000	2.9016	36.340947
 260	2.0800e+000	2.8909	36.461448
 261	2.0880e+000	2.8796	36.342801
 262	2.0960e+000	2.8680	36.507795
 263	2.1040e+000	2.8542	36.425298
 264	2.1120e+000	2.8443	36.402124
 265	2.1200e+000	2.8293	36.277915
 266	2.1280e+000	2.8190	36.350216
 267	2.1360e+000	2.8051	36.253815
 268	2.1440e+000	2.7946	36.271427
 269	2.1520e+000	2.7822	36.367828
 270	2.1600e+000	2.7703	36.327970
 271	2.1680e+000	2.7570	36.148144
 272	2.1760e+000	2.7463	36.222299
 273	2.1840e+000	2.7340	36.162975
 274	2.1920e+000	2.7247	36.188002
 275	2.2000e+000	2.7121	36.233422
 276	2.2080e+000	2.6996	36.355778
 277	2.2160e+000	2.6855	36.190783
 278	2.2240e+000	2.6748	36.032277
 279	2.2320e+000	2.6624	36.138875
 280	2.2400e+000	2.6524	36.054524
 281	2.2480e+000	2.6390	36.028570
 282	2.2560e+000	2.6273	36.145363
 283	2.2640e+000	2.6165	36.050816
 284	2.2720e+000	2.6006	36.122190
 285	2.2800e+000	2.5912	36.189856
 286	2.2880e+000	2.5776	36.105505
 287	2.2960e+000	2.5680	35.930315
 288	2.3040e+000	2.5553	36.064720
 289	2.3120e+000	2.5430	35.982223
 290	2.3200e+000	2.5323	35.974807
 291	2.3280e+000	2.5190	35.976661
 292	2.3360e+000	2.5092	35.840402
 293	2.3440e+000	2.4950	35.919191
 294	2.3520e+000	2.4825	35.955342
 295	2.3600e+000	2.4696	35.954415
 296	2.3680e+000	2.4598	35.998908
 297	2.3760e+000	2.4451	35.850598
 298	2.3840e+000	2.4339	35.787567
 299	2.3920e+000	2.4233	35.790347
 300	2.4000e+000	2.4097	35.910849
 301	2.4080e+000	2.3994	35.814448
 302	2.4160e+000	2.3853	35.880260
 303	2.4240e+000	2.3738	35.749562
 304	2.4320e+000	2.3653	35.763466
 305	2.4400e+000	2.3499	35.876552
 306	2.4480e+000	2.3363	35.750489
 307	2.4560e+000	2.3248	35.677261
 308	2.4640e+000	2.3177	35.680969
 309	2.4720e+000	2.3043	35.756978
 310	2.4800e+000	2.2888	35.680042
 311	2.4880e+000	2.2781	35.713412
 312	2.4960e+000	2.2659	35.444601
 313	2.5040e+000	2.2546	35.639257
 314	2.5120e+000	2.2434	35.516902
 315	2.5200e+000	2.2306	35.619791
 316	2.5280e+000	2.2198	35.536367
 317	2.5360e+000	2.2073	35.631842
 318	2.5440e+000	2.1960	35.636476
 319	2.5520e+000	2.1833	35.577152
 320	2.5600e+000	2.1717	35.490020
 321	2.5680e+000	2.1584	35.438112
 322	2.5760e+000	2.1488	35.472409
 323	2.5840e+000	2.1360	35.308341
 324	2.5920e+000	2.1226	35.399181
 325	2.6000e+000	2.1114	35.422354
 326	2.6080e+000	2.1002	35.454797
 327	2.6160e+000	2.0859	35.592910
 328	2.6240e+000	2.0736	35.375081
 329	2.6320e+000	2.0650	35.488167
 330	2.6400e+000	2.0509	35.265702
 331	2.6480e+000	2.0371	35.332442
 332	2.6560e+000	2.0258	35.145201
 333	2.6640e+000	2.0143	35.343565
 334	2.6720e+000	2.0054	35.398254
 335	2.6800e+000	1.9882	35.358396
 336	2.6880e+000	1.9794	35.398254
 337	2.6960e+000	1.9663	35.164666
 338	2.7040e+000	1.9549	35.110904
 339	2.7120e+000	1.9418	35.123881
 340	2.7200e+000	1.9305	35.132224
 341	2.7280e+000	1.9172	35.045092
 342	2.7360e+000	1.9093	35.162812
 343	2.7440e+000	1.8957	35.140566
 344	2.7520e+000	1.8844	35.122027
 345	2.7600e+000	1.8710	35.224917
 346	2.7680e+000	1.8584	35.055288
 347	2.7760e+000	1.8478	35.012649
 348	2.7840e+000	1.8370	35.012649
 349	2.7920e+000	1.8215	34.941275
 350	2.8000e+000	1.8131	35.264775
 351	2.8080e+000	1.7961	34.999672
 352	2.8160e+000	1.7850	34.910686
 353	2.8240e+000	1.7769	35.034895
 354	2.8320e+000	1.7626	34.901417
 355	2.8400e+000	1.7506	34.935713
 356	2.8480e+000	1.7385	34.858778
 357	2.8560e+000	1.7268	34.880097
 358	2.8640e+000	1.7169	34.799454
 359	2.8720e+000	1.7016	34.896782
 360	2.8800e+000	1.6897	35.014503
 361	2.8880e+000	1.6798	34.813358
 362	2.8960e+000	1.6651	34.898636
 363	2.9040e+000	1.6553	34.703053
 364	2.9120e+000	1.6421	34.636313
 365	2.9200e+000	1.6335	34.554743
 366	2.9280e+000	1.6199	34.674318
 367	2.9360e+000	1.6055	34.689149
 368	2.9440e+000	1.5958	34.755888
 369	2.9520e+000	1.5820	34.758669
 370	2.9600e+000	1.5692	34.646510
 371	2.9680e+000	1.5583	34.720664
 372	2.9760e+000	1.5473	34.650217
 373	2.9840e+000	1.5337	34.522300
 374	2.9920e+000	1.5227	34.648364
 375	3.0000e+000	1.5101	34.511177
 376	3.0080e+000	1.4984	34.559378
 377	3.0160e+000	1.4877	34.508396
 378	3.0240e+000	1.4749	34.517666
 379	3.0320e+000	1.4615	34.441657
 380	3.0400e+000	1.4519	34.519520
 381	3.0480e+000	1.4383	34.386968
 382	3.0560e+000	1.4268	34.442584
 383	3.0640e+000	1.4148	34.322082
 384	3.0720e+000	1.4017	34.443511
 385	3.0800e+000	1.3888	34.393456
 386	3.0880e+000	1.3778	34.580697
 387	3.0960e+000	1.3669	34.392530
 388	3.1040e+000	1.3575	34.348037
 389	3.1120e+000	1.3417	34.303544
 390	3.1200e+000	1.3311	34.201581
 391	3.1280e+000	1.3182	34.262759
 392	3.1360e+000	1.3050	34.210850
 393	3.1440e+000	1.2946	34.310959
 394	3.1520e+000	1.2817	34.179335
 395	3.1600e+000	1.2714	34.312813
 396	3.1680e+000	1.2585	34.097764
 397	3.1760e+000	1.2476	34.053271
 398	3.1840e+000	1.2341	34.122791
 399	3.1920e+000	1.2240	34.036587
 400	3.2000e+000	1.2115	34.150600
 401	3.2080e+000	1.1977	34.132061
 402	3.2160e+000	1.1888	34.090349
 403	3.2240e+000	1.1739	34.052344
 404	3.2320e+000	1.1636	33.949455
 405	3.2400e+000	1.1505	33.994874
 406	3.2480e+000	1.1387	33.898473
 407	3.2560e+000	1.1266	34.033806
 408	3.2640e+000	1.1146	33.831734
 409	3.2720e+000	1.1030	33.926281
 410	3.2800e+000	1.0917	33.834515
 411	3.2880e+000	1.0809	33.939258
 412	3.2960e+000	1.0661	33.816903
 413	3.3040e+000	1.0551	33.858615
 414	3.3120e+000	1.0429	33.737187
 415	3.3200e+000	1.0302	33.715867
 416	3.3280e+000	1.0201	33.676009
 417	3.3360e+000	1.0058	33.663032
 418	3.3440e+000	0.9918	33.586096
 419	3.3520e+000	0.9830	33.777972
 420	3.3600e+000	0.9708	33.753871
 421	3.3680e+000	0.9581	33.612977
 422	3.3760e+000	0.9490	33.540676
 423	3.3840e+000	0.9351	33.479499
 424	3.3920e+000	0.9214	33.386805
 425	3.4000e+000	0.9109	33.552727
 426	3.4080e+000	0.8972	33.442421
 427	3.4160e+000	0.8861	33.530480
 428	3.4240e+000	0.8755	33.534188
 429	3.4320e+000	0.8626	33.424809
 430	3.4400e+000	0.8532	33.299673
 431	3.4480e+000	0.8378	33.410905
 432	3.4560e+000	0.8256	33.262596
 433	3.4640e+000	0.8126	33.307089
 434	3.4720e+000	0.8040	33.390513
 435	3.4800e+000	0.7895	33.308016
 436	3.4880e+000	0.7784	33.239423
 437	3.4960e+000	0.7694	33.054036
 438	3.5040e+000	0.7571	33.199564
 439	3.5120e+000	0.7423	33.030862
 440	3.5200e+000	0.7327	33.108725
 441	3.5280e+000	0.7204	33.108725
 442	3.5360e+000	0.7070	33.079990
 443	3.5440e+000	0.6957	33.044766
 444	3.5520e+000	0.6847	33.170829
 445	3.5600e+000	0.6700	33.029008
 446	3.5680e+000	0.6579	32.970611
 447	3.5760e+000	0.6480	32.860306
 448	3.5840e+000	0.6352	32.834352
 449	3.5920e+000	0.6223	32.673065
 450	3.6000e+000	0.6106	32.854745
 451	3.6080e+000	0.5969	32.736097
 452	3.6160e+000	0.5896	32.858452
 453	3.6240e+000	0.5740	32.723120
 454	3.6320e+000	0.5653	32.635988
 455	3.6400e+000	0.5502	32.662869
 456	3.6480e+000	0.5386	32.469140
 457	3.6560e+000	0.5241	32.525683
 458	3.6640e+000	0.5165	32.471920
 459	3.6720e+000	0.4998	32.582226
 460	3.6800e+000	0.4931	32.578518
 461	3.6880e+000	0.4771	32.499728
 462	3.6960e+000	0.4668	32.373665
 463	3.7040e+000	0.4527	32.179009
 464	3.7120e+000	0.4416	32.287460
 465	3.7200e+000	0.4298	32.094658
 466	3.7280e+000	0.4176	32.179009
 467	3.7360e+000	0.4102	32.072411
 468	3.7440e+000	0.3954	32.016795
 469	3.7520e+000	0.3828	32.075192
 470	3.7600e+000	0.3716	31.984353
 471	3.7680e+000	0.3573	31.897221
 472	3.7760e+000	0.3452	31.765596
 473	3.7840e+000	0.3322	31.574647
 474	3.7920e+000	0.3205	31.588551
 475	3.8000e+000	0.3110	31.519031
 476	3.8080e+000	0.2951	31.540351
 477	3.8160e+000	0.2882	31.377210
 478	3.8240e+000	0.2740	31.345694
 479	3.8320e+000	0.2627	31.179773
 480	3.8400e+000	0.2501	30.981409
 481	3.8480e+000	0.2377	30.798803
 482	3.8560e+000	0.2256	30.519795
 483	3.8640e+000	0.2163	30.347386
 484	3.8720e+000	0.2037	30.362217
 485	3.8800e+000	0.1901	30.241715
 486	3.8880e+000	0.1762	29.938607
 487	3.8960e+000	0.1641	29.649404
 488	3.9040e+000	0.1566	29.286972
 489	3.9120e+000	0.1402	28.911563
 490	3.9200e+000	0.1308	28.520397
 491	3.9280e+000	0.1185	28.147769
 492	3.9360e+000	0.1046	27.703767
 493	3.9440e+000	0.0932	27.370998
 494	3.9520e+000	0.0831	26.713801
 495	3.9600e+000	0.0709	26.221598
 496	3.9680e+000	0.0586	25.475416
 497	3.9760e+000	0.0465	24.889593
 498	3.9840e+000	0.0346	24.022909
 499	3.9920e+000	0.0233	23.341612
 500	4.0000e+000	0.0095	22.626945
 501	4.0080e+000	-0.0018	21.853881
 502	4.0160e+000	-0.0116	21.095648
 503	4.0240e+000	-0.0254	20.101974
 504	4.0320e+000	-0.0365	19.321495
 505	4.0400e+000	-0.0476	18.448322
 506	4.0480e+000	-0.0613	17.387909
 507	4.0560e+000	-0.0704	16.558302
 508	4.0640e+000	-0.0830	15.606340
 509	4.0720e+000	-0.0989	14.907431
 510	4.0800e+000	-0.1072	13.946199
 511	4.0880e+000	-0.1218	13.115666
 512	4.0960e+000	-0.1328	12.152580
 513	4.1040e+000	-0.1462	11.203399
 514	4.1120e+000	-0.1573	10.289441
 515	4.1200e+000	-0.1674	9.371775
 516	4.1280e+000	-0.1821	8.568123
 517	4.1360e+000	-0.1928	7.763543
 518	4.1440e+000	-0.2039	6.890371
 519	4.1520e+000	-0.2177	6.144188
 520	4.1600e+000	-0.2293	5.330339
 521	4.1680e+000	-0.2405	4.500732
 522	4.1760e+000	-0.2534	3.728596
 523	4.1840e+000	-0.2647	2.899916
 524	4.1920e+000	-0.2778	2.261258
 525	4.2000e+000	-0.2880	1.504879
 526	4.2080e+000	-0.2998	0.924618
 527	4.2160e+000	-0.3126	0.130234
 528	4.2240e+000	-0.3240	-0.436123
 529	4.2320e+000	-0.3384	-1.262022
 530	4.2400e+000	-0.3500	-1.935904
 531	4.2480e+000	-0.3610	-2.551388
 532	4.2560e+000	-0.3737	-3.178923
 533	4.2640e+000	-0.3859	-3.845389
 534	4.2720e+000	-0.3979	-4.324615
 535	4.2800e+000	-0.4102	-4.856675
 536	4.2880e+000	-0.4215	-5.361855
 537	4.2960e+000	-0.4356	-6.097841
 538	4.3040e+000	-0.4460	-6.492716
 539	4.3120e+000	-0.4567	-7.177720
 540	4.3200e+000	-0.4694	-7.571668
 541	4.3280e+000	-0.4803	-8.134317
 542	4.3360e+000	-0.4948	-8.499530
 543	4.3440e+000	-0.5083	-9.052910
