»»»»»»»»»»»»»»»»»»»»»»»»»»»»»»»»»»»» Hysteresis ««««««««««««««««««««««««««««««««««««
»»»  Executed Version:	5.16.2
»»»  Vision Version:	5.16.10 (R)
»»»  Vision Compiled:	4/26/18
»»»  Driver Version:	5.16.6
»»»  Windows Version:	Windows 8
»»»  Processor Information:	x86 (AMD or Intel) - 8 Processors
»»»  Tester Name:	PPM21016-863
»»»  Tester S/N:	PPM21016-863
»»»  Internal Amp Type:	 RTI ML200V    
»»»  Internal Amp S/N:	 iAB2-0000     
»»»  Execution Count:	1
»»»»»»»»»»»»»»»»»»»»»»»»»»»»»»»»»»»»»»»»»»««««««««««««««««««««««««««««««««««««««««««

Stored:	5/15/2018 - 20:27:43
Configured:	05/15/18 08:22:15 PM
Executed:	05/15/18 08:27:18 PM

»»»»»»»»»»»»»»»»»»»»»»»»»»»»»»»»»»» Sample Info ««««««««««««««««««««««««««««««««««««
Sample Name:	Internal Reference Cap.
Lot Name:	N/A
Wafer Name:	N/A
Die Row/Column:	0/0
Capacitor Number:	0
Sample Area (cm2):	7.85e-005
Sample Thickness (µm):	1.00e-001

Mux Loop Adjustment:	Disabled

Amplifier:	Internal

»»»»»»»»»»»»»»»»»»»»»»»»»»»»»»»»»»» Tester Info «««««««««««««««««««««««««««««««««««
Tester Name:	PPM21016-863
Tester Serial Number:	PPM21016-863
Return Signal Amp. Level:	1.79 [Index: 2]

»»»»»»»»»»»»»»»»»»»»»»»»»»»»»»»» Hysteresis Info ««««««««««««««««««««««««««««««««««
Task Name:	Hyst-1
Field (kV/cm):	0.03
Field:	300.00 (kV/cm)
Hysteresis Period (ms):	2.00e+000
Preset:	Enabled
Preset Delay (ms):	1.00e+003
Profile:	Double Bipolar

»»»»»»»»»»»»»»»»»»»»»»»»»»»»»»»»»»»»»» Data «««««««««««««««««««««««««««««««««««««««
Points:	2001

Valid Data

Point	Time (ms)	Field (kV/cm)	Measured Polarization
   1	1.0000e-003	0.061035	-21.717372
   2	2.0000e-003	1.228333	-21.710880
   3	3.0000e-003	2.365112	-21.581581
   4	4.0000e-003	3.578186	-21.473381
   5	5.0000e-003	4.905701	-21.417117
   6	6.0000e-003	5.897522	-21.333262
   7	7.0000e-003	7.125854	-21.210996
   8	8.0000e-003	8.346558	-21.110370
   9	9.0000e-003	9.437561	-20.969169
  10	1.0000e-002	10.887146	-20.828509
  11	1.1000e-002	11.741638	-20.634290
  12	1.2000e-002	13.084412	-20.435202
  13	1.3000e-002	13.427734	-20.250180
  14	1.4000e-002	15.632629	-19.901234
  15	1.5000e-002	16.830444	-19.628570
  16	1.6000e-002	18.013000	-19.309380
  17	1.7000e-002	19.035339	-18.902007
  18	1.8000e-002	20.141602	-18.610949
  19	1.9000e-002	21.392822	-18.175444
  20	2.0000e-002	22.819519	-17.779973
  21	2.1000e-002	23.956299	-17.307138
  22	2.2000e-002	25.009155	-16.812123
  23	2.3000e-002	26.344299	-16.308452
  24	2.4000e-002	27.427673	-15.731205
  25	2.5000e-002	28.648376	-15.177761
  26	2.6000e-002	29.937744	-14.535053
  27	2.7000e-002	31.127930	-13.879361
  28	2.8000e-002	32.318115	-13.233407
  29	2.9000e-002	33.386230	-12.425693
  30	3.0000e-002	34.774780	-11.714278
  31	3.1000e-002	35.758972	-10.948222
  32	3.2000e-002	37.078857	-10.121032
  33	3.3000e-002	38.169861	-9.263006
  34	3.4000e-002	39.649963	-8.377389
  35	3.5000e-002	40.847778	-7.489066
  36	3.6000e-002	41.839600	-6.579645
  37	3.7000e-002	42.770386	-5.626943
  38	3.8000e-002	44.395447	-4.685603
  39	3.9000e-002	45.280457	-3.672310
  40	4.0000e-002	46.501160	-2.669836
  41	4.1000e-002	47.973633	-1.692790
  42	4.2000e-002	49.057007	-0.668676
  43	4.3000e-002	50.125122	0.346240
  44	4.4000e-002	51.452637	1.381174
  45	4.5000e-002	52.452087	2.378778
  46	4.6000e-002	54.016113	3.383956
  47	4.7000e-002	55.030823	4.388053
  48	4.8000e-002	55.999756	5.403510
  49	4.9000e-002	56.587219	6.325916
  50	5.0000e-002	58.601379	7.307831
  51	5.1000e-002	60.012817	8.199399
  52	5.2000e-002	61.126709	9.110444
  53	5.3000e-002	62.309265	9.980913
  54	5.4000e-002	63.331604	10.853547
  55	5.5000e-002	64.567566	11.641784
  56	5.6000e-002	65.864563	12.432726
  57	5.7000e-002	66.818237	13.190127
  58	5.8000e-002	68.428040	13.944822
  59	5.9000e-002	69.625854	14.663270
  60	6.0000e-002	70.564270	15.331406
  61	6.1000e-002	71.624756	15.989262
  62	6.2000e-002	72.998047	16.630347
  63	6.3000e-002	74.348450	17.247087
  64	6.4000e-002	75.500488	17.836778
  65	6.5000e-002	76.042175	18.396172
  66	6.6000e-002	78.201294	18.997223
  67	6.7000e-002	79.154968	19.513878
  68	6.8000e-002	80.375671	20.081388
  69	6.9000e-002	81.581116	20.581272
  70	7.0000e-002	82.771301	21.068172
  71	7.1000e-002	83.694458	21.574007
  72	7.2000e-002	85.067749	22.028988
  73	7.3000e-002	86.174011	22.514807
  74	7.4000e-002	87.524414	22.953558
  75	7.5000e-002	88.569641	23.370128
  76	7.6000e-002	89.782715	23.840257
  77	7.7000e-002	91.117859	24.266024
  78	7.8000e-002	92.216492	24.686923
  79	7.9000e-002	93.452454	25.099165
  80	8.0000e-002	94.764709	25.498423
  81	8.1000e-002	95.939636	25.935551
  82	8.2000e-002	96.931458	26.285578
  83	8.3000e-002	98.487854	26.606391
  84	8.4000e-002	99.578857	27.042979
  85	8.5000e-002	100.601196	27.344316
  86	8.6000e-002	102.058411	27.715442
  87	8.7000e-002	103.157043	28.027058
  88	8.8000e-002	104.454041	28.343002
  89	8.9000e-002	105.476379	28.650290
  90	9.0000e-002	106.719971	28.941889
  91	9.1000e-002	107.963562	29.249177
  92	9.2000e-002	109.603882	29.522924
  93	9.3000e-002	110.359192	29.767456
  94	9.4000e-002	111.442566	29.937871
  95	9.5000e-002	112.655640	30.243536
  96	9.6000e-002	114.006042	30.487527
  97	9.7000e-002	115.028381	30.692025
  98	9.8000e-002	116.424561	30.899228
  99	9.9000e-002	117.576599	31.095070
 100	1.0000e-001	118.644714	31.260616
 101	1.0100e-001	120.193481	31.438605
 102	1.0200e-001	121.231079	31.594413
 103	1.0300e-001	122.650146	31.742648
 104	1.0400e-001	123.497009	31.896833
 105	1.0500e-001	124.740601	31.998000
 106	1.0600e-001	125.938416	32.181940
 107	1.0700e-001	127.159119	32.326928
 108	1.0800e-001	128.356934	32.456768
 109	1.0900e-001	129.722595	32.605543
 110	1.1000e-001	130.638123	32.689398
 111	1.1100e-001	131.851196	32.836009
 112	1.1200e-001	132.942200	32.944209
 113	1.1300e-001	134.353638	33.082705
 114	1.1400e-001	135.566711	33.173052
 115	1.1500e-001	136.764526	33.277465
 116	1.1600e-001	137.748718	33.402977
 117	1.1700e-001	139.350891	33.513882
 118	1.1800e-001	140.327454	33.621541
 119	1.1900e-001	141.204834	33.730823
 120	1.2000e-001	142.845154	33.832531
 121	1.2100e-001	144.485474	33.972650
 122	1.2200e-001	145.217896	34.034865
 123	1.2300e-001	146.438599	34.127377
 124	1.2400e-001	147.491455	34.243692
 125	1.2500e-001	148.773193	34.348105
 126	1.2600e-001	149.833679	34.416271
 127	1.2700e-001	151.283264	34.519061
 128	1.2800e-001	152.351379	34.589932
 129	1.2900e-001	153.785706	34.728969
 130	1.3000e-001	154.685974	34.787397
 131	1.3100e-001	156.112671	34.886400
 132	1.3200e-001	157.096863	34.965386
 133	1.3300e-001	158.508301	35.030847
 134	1.3400e-001	159.698486	35.134178
 135	1.3500e-001	160.736084	35.227230
 136	1.3600e-001	161.972046	35.320282
 137	1.3700e-001	163.169861	35.410629
 138	1.3800e-001	164.375305	35.473385
 139	1.3900e-001	165.443420	35.562650
 140	1.4000e-001	166.877747	35.665981
 141	1.4100e-001	167.877197	35.739557
 142	1.4200e-001	169.158936	35.810428
 143	1.4300e-001	170.433044	35.894283
 144	1.4400e-001	172.050476	36.071190
 145	1.4500e-001	172.821045	36.046304
 146	1.4600e-001	173.942566	36.138815
 147	1.4700e-001	175.132751	36.204276
 148	1.4800e-001	176.483154	36.297869
 149	1.4900e-001	177.192688	36.357920
 150	1.5000e-001	179.039001	36.430415
 151	1.5100e-001	180.091858	36.518598
 152	1.5200e-001	181.358337	36.597043
 153	1.5300e-001	182.365417	36.665750
 154	1.5400e-001	183.525085	36.736080
 155	1.5500e-001	184.806824	36.726883
 156	1.5600e-001	185.981750	36.892429
 157	1.5700e-001	187.034607	36.949775
 158	1.5800e-001	188.713074	37.041204
 159	1.5900e-001	189.613342	37.096927
 160	1.6000e-001	191.085815	37.174831
 161	1.6100e-001	191.864014	37.247866
 162	1.6200e-001	193.267822	37.288982
 163	1.6300e-001	194.488525	37.367427
 164	1.6400e-001	195.495605	37.447495
 165	1.6500e-001	196.708679	37.537301
 166	1.6600e-001	198.089600	37.588155
 167	1.6700e-001	198.760986	37.660649
 168	1.6800e-001	200.546265	37.708257
 169	1.6900e-001	201.667786	37.783997
 170	1.7000e-001	202.629089	37.897607
 171	1.7100e-001	203.842163	37.895984
 172	1.7200e-001	205.169678	37.952789
 173	1.7300e-001	206.687927	38.039890
 174	1.7400e-001	207.626343	38.105892
 175	1.7500e-001	208.473206	38.149713
 176	1.7600e-001	210.037231	38.233027
 177	1.7700e-001	210.945129	38.262241
 178	1.7800e-001	212.631226	38.348801
 179	1.7900e-001	213.706970	38.405606
 180	1.8000e-001	214.767456	38.446722
 181	1.8100e-001	215.850830	38.532200
 182	1.8200e-001	217.147827	38.589546
 183	1.8300e-001	218.116760	38.644187
 184	1.8400e-001	219.589233	38.718845
 185	1.8500e-001	220.657349	38.764289
 186	1.8600e-001	222.320557	38.828128
 187	1.8700e-001	223.136902	38.881146
 188	1.8800e-001	224.273682	38.947148
 189	1.8900e-001	226.127625	39.039659
 190	1.9000e-001	226.631165	39.073201
 191	1.9100e-001	228.202820	39.152728
 192	1.9200e-001	229.156494	39.182483
 193	1.9300e-001	230.270386	39.231173
 194	1.9400e-001	231.506348	39.291765
 195	1.9500e-001	232.475281	39.368587
 196	1.9600e-001	233.993530	39.425392
 197	1.9700e-001	235.191345	39.474082
 198	1.9800e-001	236.259460	39.499509
 199	1.9900e-001	237.480164	39.572544
 200	2.0000e-001	239.158630	39.683990
 201	2.0100e-001	240.020752	39.681285
 202	2.0200e-001	241.302490	39.741877
 203	2.0300e-001	242.301941	39.799223
 204	2.0400e-001	243.186951	39.857110
 205	2.0500e-001	244.186401	39.838175
 206	2.0600e-001	246.147156	39.976130
 207	2.0700e-001	246.139526	40.025361
 208	2.0800e-001	248.367310	40.089199
 209	2.0900e-001	249.633789	40.117331
 210	2.1000e-001	250.770569	40.167644
 211	2.1100e-001	252.044678	40.236351
 212	2.1200e-001	253.158569	40.290992
 213	2.1300e-001	254.432678	40.337518
 214	2.1400e-001	255.371094	40.382421
 215	2.1500e-001	256.530762	40.424619
 216	2.1600e-001	258.171082	40.490621
 217	2.1700e-001	259.193420	40.520917
 218	2.1800e-001	260.208130	40.594493
 219	2.1900e-001	261.558533	40.658331
 220	2.2000e-001	261.909485	40.695660
 221	2.2100e-001	264.038086	40.747596
 222	2.2200e-001	265.098572	40.780597
 223	2.2300e-001	266.601563	40.839566
 224	2.2400e-001	267.608643	40.881764
 225	2.2500e-001	269.172668	40.938028
 226	2.2600e-001	269.958496	40.978603
 227	2.2700e-001	271.141052	41.040818
 228	2.2800e-001	272.338867	41.080311
 229	2.2900e-001	273.689270	41.039736
 230	2.3000e-001	274.620056	41.178774
 231	2.3100e-001	276.237488	41.219890
 232	2.3200e-001	277.175903	41.256678
 233	2.3300e-001	278.366089	41.330254
 234	2.3400e-001	279.640198	41.365419
 235	2.3500e-001	280.647278	41.423847
 236	2.3600e-001	282.096863	41.474701
 237	2.3700e-001	283.081055	41.496882
 238	2.3800e-001	284.484863	41.570999
 239	2.3900e-001	285.697937	41.634837
 240	2.4000e-001	286.872864	41.649985
 241	2.4100e-001	287.445068	41.679199
 242	2.4200e-001	289.161682	41.727348
 243	2.4300e-001	290.245056	41.782530
 244	2.4400e-001	291.618347	41.830679
 245	2.4500e-001	292.877197	41.878287
 246	2.4600e-001	294.052124	41.931846
 247	2.4700e-001	295.104980	41.959978
 248	2.4800e-001	296.478271	42.017865
 249	2.4900e-001	297.691345	42.070342
 250	2.5000e-001	298.324585	42.107130
 251	2.5100e-001	300.262451	42.182870
 252	2.5200e-001	298.858643	42.113081
 253	2.5300e-001	297.401428	42.097392
 254	2.5400e-001	296.562195	42.073047
 255	2.5500e-001	294.975281	42.030308
 256	2.5600e-001	294.036865	42.020570
 257	2.5700e-001	292.602539	41.983782
 258	2.5800e-001	291.717529	41.961601
 259	2.5900e-001	290.672302	41.922649
 260	2.6000e-001	289.268494	41.881533
 261	2.6100e-001	287.788391	41.875041
 262	2.6200e-001	286.903381	41.844204
 263	2.6300e-001	285.453796	41.787399
 264	2.6400e-001	284.355164	41.765218
 265	2.6500e-001	283.355713	41.734922
 266	2.6600e-001	282.089233	41.722479
 267	2.6700e-001	280.769348	41.678117
 268	2.6800e-001	279.594421	41.639165
 269	2.6900e-001	278.511047	41.614279
 270	2.7000e-001	277.275085	41.555310
 271	2.7100e-001	275.917053	41.526637
 272	2.7200e-001	274.833679	41.500669
 273	2.7300e-001	273.582458	41.472537
 274	2.7400e-001	272.399902	41.432503
 275	2.7500e-001	271.202087	41.391387
 276	2.7600e-001	269.927979	41.362714
 277	2.7700e-001	268.737793	41.319434
 278	2.7800e-001	267.852783	41.299958
 279	2.7900e-001	266.471863	41.228005
 280	2.8000e-001	265.113831	41.211775
 281	2.8100e-001	264.533997	41.243153
 282	2.8200e-001	262.519836	41.116017
 283	2.8300e-001	261.657715	41.100328
 284	2.8400e-001	260.093689	41.059753
 285	2.8500e-001	259.056091	41.031621
 286	2.8600e-001	258.049011	40.991046
 287	2.8700e-001	256.614685	40.952635
 288	2.8800e-001	255.744934	40.954799
 289	2.8900e-001	254.371643	40.862829
 290	2.9000e-001	253.204346	40.822254
 291	2.9100e-001	252.784729	40.836320
 292	2.9200e-001	250.907898	40.761662
 293	2.9300e-001	249.717712	40.720005
 294	2.9400e-001	248.214722	40.696742
 295	2.9500e-001	247.322083	40.648593
 296	2.9600e-001	246.276855	40.611805
 297	2.9700e-001	244.651794	40.549049
 298	2.9800e-001	243.431091	40.549049
 299	2.9900e-001	242.263794	40.485752
 300	3.0000e-001	241.294861	40.455456
 301	3.0100e-001	240.051270	40.393782
 302	3.0200e-001	238.777161	40.352125
 303	3.0300e-001	237.701416	40.318042
 304	3.0400e-001	236.465454	40.274762
 305	3.0500e-001	235.000610	40.224449
 306	3.0600e-001	233.650208	40.196858
 307	3.0700e-001	232.658386	40.131397
 308	3.0800e-001	231.643677	40.102183
 309	3.0900e-001	230.270386	40.078920
 310	3.1000e-001	229.049683	40.027525
 311	3.1100e-001	227.294922	39.923112
 312	3.1200e-001	226.951599	39.936096
 313	3.1300e-001	225.547791	39.870635
 314	3.1400e-001	224.571228	39.846831
 315	3.1500e-001	222.511292	39.741877
 316	3.1600e-001	222.145081	39.784075
 317	3.1700e-001	220.726013	39.704548
 318	3.1800e-001	219.551086	39.745123
 319	3.1900e-001	218.505859	39.612578
 320	3.2000e-001	217.071533	39.577413
 321	3.2100e-001	215.812683	39.546035
 322	3.2200e-001	214.698792	39.490853
 323	3.2300e-001	213.569641	39.426474
 324	3.2400e-001	211.631775	39.363177
 325	3.2500e-001	210.983276	39.351816
 326	3.2600e-001	209.739685	39.356685
 327	3.2700e-001	208.877563	39.237124
 328	3.2800e-001	207.656860	39.207369
 329	3.2900e-001	206.291199	39.148400
 330	3.3000e-001	205.375671	39.107825
 331	3.3100e-001	204.071045	39.065627
 332	3.3200e-001	202.606201	38.935246
 333	3.3300e-001	201.515198	38.959050
 334	3.3400e-001	200.431824	38.920639
 335	3.3500e-001	199.050903	38.862211
 336	3.3600e-001	198.188782	38.820554
 337	3.3700e-001	196.685791	38.758879
 338	3.3800e-001	195.335388	38.723173
 339	3.3900e-001	194.244385	38.676647
 340	3.4000e-001	193.252563	38.601448
 341	3.4100e-001	192.459106	38.640941
 342	3.4200e-001	190.681458	38.508937
 343	3.4300e-001	189.811707	38.469985
 344	3.4400e-001	188.339233	38.416967
 345	3.4500e-001	187.004089	38.353670
 346	3.4600e-001	185.867310	38.314718
 347	3.4700e-001	184.768677	38.299029
 348	3.4800e-001	183.616638	38.205436
 349	3.4900e-001	182.395935	38.145385
 350	3.5000e-001	179.901123	38.020414
 351	3.5100e-001	180.152893	38.027447
 352	3.5200e-001	178.527832	37.991200
 353	3.5300e-001	177.635193	37.916001
 354	3.5400e-001	176.460266	37.853786
 355	3.5500e-001	175.186157	37.817539
 356	3.5600e-001	173.973083	37.749373
 357	3.5700e-001	172.515869	37.675256
 358	3.5800e-001	171.394348	37.633058
 359	3.5900e-001	170.280457	37.580040
 360	3.6000e-001	169.197083	37.516743
 361	3.6100e-001	168.487549	37.494021
 362	3.6200e-001	166.831970	37.385280
 363	3.6300e-001	165.512085	37.347410
 364	3.6400e-001	164.466858	37.292228
 365	3.6500e-001	163.223267	37.213783
 366	3.6600e-001	162.094116	37.194307
 367	3.6700e-001	160.774231	37.101255
 368	3.6800e-001	159.149170	37.050401
 369	3.6900e-001	158.309937	36.994137
 370	3.7000e-001	157.119751	36.894593
 371	3.7100e-001	155.944824	36.862674
 372	3.7200e-001	155.036926	36.822640
 373	3.7300e-001	153.373718	36.725801
 374	3.7400e-001	152.420044	36.665750
 375	3.7500e-001	151.214600	36.603535
 376	3.7600e-001	149.971008	36.535369
 377	3.7700e-001	148.857117	36.495335
 378	3.7800e-001	147.453308	36.398495
 379	3.7900e-001	146.423340	36.348723
 380	3.8000e-001	145.065308	36.253507
 381	3.8100e-001	144.195557	36.229162
 382	3.8200e-001	143.348694	36.161537
 383	3.8300e-001	141.685486	36.052255
 384	3.8400e-001	140.296936	36.027910
 385	3.8500e-001	138.938904	35.929989
 386	3.8600e-001	138.175964	35.881299
 387	3.8700e-001	136.695862	35.805559
 388	3.8800e-001	135.520935	35.727114
 389	3.8900e-001	134.201050	35.655161
 390	3.9000e-001	133.338928	35.586995
 391	3.9100e-001	132.011414	35.528026
 392	3.9200e-001	130.676270	35.442007
 393	3.9300e-001	129.570007	35.352742
 394	3.9400e-001	128.417969	35.302970
 395	3.9500e-001	127.189636	35.222361
 396	3.9600e-001	126.060486	35.144457
 397	3.9700e-001	124.786377	35.064930
 398	3.9800e-001	123.313904	34.986485
 399	3.9900e-001	122.406006	34.957271
 400	4.0000e-001	121.299744	34.821480
 401	4.0100e-001	119.972229	34.785774
 402	4.0200e-001	118.392944	34.634294
 403	4.0300e-001	117.660522	34.579112
 404	4.0400e-001	116.554260	34.517979
 405	4.0500e-001	114.944458	34.427632
 406	4.0600e-001	113.845825	34.408156
 407	4.0700e-001	112.960815	34.261004
 408	4.0800e-001	111.625671	34.175526
 409	4.0900e-001	110.366821	34.108983
 410	4.1000e-001	109.260559	34.000241
 411	4.1100e-001	107.772827	33.908271
 412	4.1200e-001	106.620789	33.834154
 413	4.1300e-001	105.445862	33.732446
 414	4.1400e-001	104.339600	33.657247
 415	4.1500e-001	103.416443	33.561490
 416	4.1600e-001	101.661682	33.474389
 417	4.1700e-001	100.624084	33.408387
 418	4.1800e-001	99.639893	33.275301
 419	4.1900e-001	98.495483	33.186577
 420	4.2000e-001	97.198486	33.064311
 421	4.2100e-001	96.000671	33.007506
 422	4.2200e-001	94.871521	32.899306
 423	4.2300e-001	93.490601	32.782450
 424	4.2400e-001	92.475891	32.687234
 425	4.2500e-001	91.438293	32.581739
 426	4.2600e-001	89.904785	32.480031
 427	4.2700e-001	88.615417	32.373995
 428	4.2800e-001	87.486267	32.266877
 429	4.2900e-001	86.448669	32.182481
 430	4.3000e-001	85.105896	32.035329
 431	4.3100e-001	84.037781	31.919014
 432	4.3200e-001	83.244324	31.830831
 433	4.3300e-001	81.687927	31.697203
 434	4.3400e-001	80.314636	31.581429
 435	4.3500e-001	79.277039	31.473770
 436	4.3600e-001	77.987671	31.384505
 437	4.3700e-001	76.873779	31.224369
 438	4.3800e-001	75.592041	31.126448
 439	4.3900e-001	74.264526	30.978755
 440	4.4000e-001	73.333740	30.817537
 441	4.4100e-001	72.120667	30.707173
 442	4.4200e-001	70.793152	30.581120
 443	4.4300e-001	69.778442	30.417738
 444	4.4400e-001	68.641663	30.284111
 445	4.4500e-001	67.131042	30.126139
 446	4.4600e-001	66.131592	29.977364
 447	4.4700e-001	65.048218	29.845360
 448	4.4800e-001	63.453674	29.650600
 449	4.4900e-001	62.431335	29.495874
 450	4.5000e-001	61.134338	29.331950
 451	4.5100e-001	59.745789	29.168027
 452	4.5200e-001	58.769226	28.964070
 453	4.5300e-001	57.991028	28.809885
 454	4.5400e-001	56.442261	28.582124
 455	4.5500e-001	55.160522	28.392233
 456	4.5600e-001	53.970337	28.191522
 457	4.5700e-001	52.803040	27.949154
 458	4.5800e-001	51.780701	27.707327
 459	4.5900e-001	50.331116	27.482812
 460	4.6000e-001	49.163818	27.233411
 461	4.6100e-001	47.973633	26.983468
 462	4.6200e-001	46.714783	26.728116
 463	4.6300e-001	45.089722	26.420287
 464	4.6400e-001	44.563293	26.142754
 465	4.6500e-001	43.190002	25.861434
 466	4.6600e-001	42.221069	25.456225
 467	4.6700e-001	40.695190	25.196004
 468	4.6800e-001	39.772034	24.856256
 469	4.6900e-001	38.253784	24.538688
 470	4.7000e-001	37.300110	24.158365
 471	4.7100e-001	35.995483	23.806715
 472	4.7200e-001	34.759521	23.397719
 473	4.7300e-001	33.599854	23.031462
 474	4.7400e-001	32.669067	22.627876
 475	4.7500e-001	31.318665	22.183173
 476	4.7600e-001	30.082703	21.827195
 477	4.7700e-001	28.457642	21.373296
 478	4.7800e-001	26.771545	20.879363
 479	4.7900e-001	26.466370	20.454678
 480	4.8000e-001	25.253296	19.999697
 481	4.8100e-001	23.643494	19.531190
 482	4.8200e-001	22.926331	19.052405
 483	4.8300e-001	21.682739	18.551439
 484	4.8400e-001	20.446777	18.025046
 485	4.8500e-001	19.447327	17.474307
 486	4.8600e-001	18.165588	16.939799
 487	4.8700e-001	17.059326	16.383651
 488	4.8800e-001	15.884399	15.804781
 489	4.8900e-001	14.427185	15.204811
