»»»»»»»»»»»»»»»»»»»»»»»»»»»»»»»»»»»» Hysteresis ««««««««««««««««««««««««««««««««««««
»»»  Executed Version:	5.16.2
»»»  Vision Version:	5.16.10 (R)
»»»  Vision Compiled:	4/26/18
»»»  Driver Version:	5.16.6
»»»  Windows Version:	Windows 8
»»»  Processor Information:	x86 (AMD or Intel) - 8 Processors
»»»  Tester Name:	PPM21016-863
»»»  Tester S/N:	PPM21016-863
»»»  Internal Amp Type:	 RTI ML200V    
»»»  Internal Amp S/N:	 iAB2-0000     
»»»  Execution Count:	1
»»»»»»»»»»»»»»»»»»»»»»»»»»»»»»»»»»»»»»»»»»««««««««««««««««««««««««««««««««««««««««««

Stored:	6/4/2018 - 14:55:28
Configured:	06/04/18 02:25:46 PM
Executed:	06/04/18 02:55:01 PM

»»»»»»»»»»»»»»»»»»»»»»»»»»»»»»»»»»» Sample Info ««««««««««««««««««««««««««««««««««««
Sample Name:	Internal Reference Cap.
Lot Name:	N/A
Wafer Name:	N/A
Die Row/Column:	0/0
Capacitor Number:	0
Sample Area (cm2):	6.20e-005
Sample Thickness (µm):	1.00e-001

Mux Loop Adjustment:	Disabled

Amplifier:	Internal

»»»»»»»»»»»»»»»»»»»»»»»»»»»»»»»»»»» Tester Info «««««««««««««««««««««««««««««««««««
Tester Name:	PPM21016-863
Tester Serial Number:	PPM21016-863
Return Signal Amp. Level:	1.79 [Index: 2]

»»»»»»»»»»»»»»»»»»»»»»»»»»»»»»»» Hysteresis Info ««««««««««««««««««««««««««««««««««
Task Name:	Hyst-1
Volts:	3.00
Field:	300.00 (kV/cm)
Hysteresis Period (ms):	2.00e+000
Preset:	Enabled
Preset Delay (ms):	1.00e+003
Profile:	Double Bipolar

»»»»»»»»»»»»»»»»»»»»»»»»»»»»»»»»»»»»»» Data «««««««««««««««««««««««««««««««««««««««
Points:	2001

Valid Data

Point	Time (ms)	Field (kV/cm)	Measured Polarization
   1	1.0000e-003	-0.068665	-25.533158
   2	2.0000e-003	0.907898	-25.480388
   3	3.0000e-003	2.197266	-25.431730
   4	4.0000e-003	3.570557	-25.366624
   5	5.0000e-003	4.676819	-25.333043
   6	6.0000e-003	5.935669	-25.278903
   7	7.0000e-003	6.988525	-25.228874
   8	8.0000e-003	8.369446	-25.166509
   9	9.0000e-003	9.582520	-25.106886
  10	1.0000e-002	10.574341	-25.033556
  11	1.1000e-002	11.672974	-24.960227
  12	1.2000e-002	13.076782	-24.871820
  13	1.3000e-002	14.305115	-24.751202
  14	1.4000e-002	15.357971	-24.662110
  15	1.5000e-002	16.761780	-24.545605
  16	1.6000e-002	17.814636	-24.381812
  17	1.7000e-002	19.248962	-24.237894
  18	1.8000e-002	20.141602	-24.054227
  19	1.9000e-002	21.415710	-23.865077
  20	2.0000e-002	22.682190	-23.640976
  21	2.1000e-002	23.788452	-23.406595
  22	2.2000e-002	25.054932	-23.144115
  23	2.3000e-002	26.191711	-22.863132
  24	2.4000e-002	27.282715	-22.575295
  25	2.5000e-002	28.633118	-22.242912
  26	2.6000e-002	29.830933	-21.870096
  27	2.7000e-002	31.059265	-21.497964
  28	2.8000e-002	32.142639	-21.079916
  29	2.9000e-002	33.401489	-20.610468
  30	3.0000e-002	34.622192	-20.119775
  31	3.1000e-002	35.919189	-19.581795
  32	3.2000e-002	37.071228	-19.025996
  33	3.3000e-002	38.299561	-18.428393
  34	3.4000e-002	39.459229	-17.787614
  35	3.5000e-002	40.824890	-17.133128
  36	3.6000e-002	41.976929	-16.422446
  37	3.7000e-002	42.808533	-15.682980
  38	3.8000e-002	44.387817	-14.894171
  39	3.9000e-002	45.478821	-14.088229
  40	4.0000e-002	46.623230	-13.218551
  41	4.1000e-002	47.821045	-12.363951
  42	4.2000e-002	48.988342	-11.427797
  43	4.3000e-002	50.193787	-10.490272
  44	4.4000e-002	51.368713	-9.518481
  45	4.5000e-002	52.543640	-8.531613
  46	4.6000e-002	53.688049	-7.494716
  47	4.7000e-002	54.901123	-6.465357
  48	4.8000e-002	56.129456	-5.402418
  49	4.9000e-002	57.510376	-4.329884
  50	5.0000e-002	58.677673	-3.234735
  51	5.1000e-002	59.799194	-2.156033
  52	5.2000e-002	60.867310	-1.049918
  53	5.3000e-002	62.263489	0.030154
  54	5.4000e-002	63.415527	1.106800
  55	5.5000e-002	64.659119	2.155348
  56	5.6000e-002	65.612793	3.183335
  57	5.7000e-002	67.070007	4.140049
  58	5.8000e-002	68.069458	5.124861
  59	5.9000e-002	69.488525	5.993168
  60	6.0000e-002	70.755005	6.842971
  61	6.1000e-002	71.632385	7.608480
  62	6.2000e-002	72.830200	8.336980
  63	6.3000e-002	74.241638	8.998319
  64	6.4000e-002	75.294495	9.630874
  65	6.5000e-002	76.828003	10.203806
  66	6.6000e-002	77.842712	10.760975
  67	6.7000e-002	79.002380	11.279766
  68	6.8000e-002	80.635071	11.801299
  69	6.9000e-002	81.565857	12.276914
  70	7.0000e-002	82.748413	12.749789
  71	7.1000e-002	83.900452	13.239111
  72	7.2000e-002	84.915161	13.731860
  73	7.3000e-002	86.112976	14.193083
  74	7.4000e-002	87.432861	14.676923
  75	7.5000e-002	88.867188	15.156651
  76	7.6000e-002	89.859009	15.632266
  77	7.7000e-002	90.995789	16.140777
  78	7.8000e-002	92.414856	16.659569
  79	7.9000e-002	93.429565	17.146149
  80	8.0000e-002	94.757080	17.669738
  81	8.1000e-002	95.970154	18.198124
  82	8.2000e-002	96.969604	18.742272
  83	8.3000e-002	98.480225	19.298756
  84	8.4000e-002	99.609375	19.862778
  85	8.5000e-002	100.570679	20.415836
  86	8.6000e-002	101.753235	20.990138
  87	8.7000e-002	103.050232	21.555531
  88	8.8000e-002	104.240417	22.183289
  89	8.9000e-002	105.476379	22.774725
  90	9.0000e-002	106.727600	23.368902
  91	9.1000e-002	107.749939	23.997345
  92	9.2000e-002	109.077454	24.623047
  93	9.3000e-002	110.542297	25.254916
  94	9.4000e-002	111.412048	25.890213
  95	9.5000e-002	112.632751	26.533048
  96	9.6000e-002	113.899231	27.184792
  97	9.7000e-002	114.814758	27.828312
  98	9.8000e-002	116.104126	28.457441
  99	9.9000e-002	117.393494	29.114668
 100	1.0000e-001	118.865967	29.778748
 101	1.0100e-001	119.880676	30.419527
 102	1.0200e-001	121.078491	31.042487
 103	1.0300e-001	122.009277	31.694231
 104	1.0400e-001	123.405457	32.300744
 105	1.0500e-001	124.877930	32.928502
 106	1.0600e-001	125.885010	33.545980
 107	1.0700e-001	127.037048	34.149066
 108	1.0800e-001	128.410339	34.730222
 109	1.0900e-001	129.486084	35.299727
 110	1.1000e-001	130.706787	35.882253
 111	1.1100e-001	131.866455	36.453129
 112	1.1200e-001	133.071899	36.970549
 113	1.1300e-001	133.941650	37.509215
 114	1.1400e-001	135.482788	38.007446
 115	1.1500e-001	136.535645	38.505678
 116	1.1600e-001	137.741089	38.995000
 117	1.1700e-001	138.877869	39.458280
 118	1.1800e-001	140.167236	39.909224
 119	1.1900e-001	141.632080	40.344405
 120	1.2000e-001	142.814636	40.754230
 121	1.2100e-001	143.699646	41.161998
 122	1.2200e-001	145.050049	41.535500
 123	1.2300e-001	146.430969	41.913800
 124	1.2400e-001	147.560120	42.261945
 125	1.2500e-001	148.681641	42.608719
 126	1.2600e-001	149.940491	42.891073
 127	1.2700e-001	150.993347	43.209064
 128	1.2800e-001	152.427673	43.496901
 129	1.2900e-001	153.442383	43.790220
 130	1.3000e-001	154.426575	44.034881
 131	1.3100e-001	155.998230	44.290507
 132	1.3200e-001	157.310486	44.526944
 133	1.3300e-001	158.050537	44.781885
 134	1.3400e-001	159.866333	44.968979
 135	1.3500e-001	160.896301	45.172521
 136	1.3600e-001	161.750793	45.371950
 137	1.3700e-001	162.994385	45.570009
 138	1.3800e-001	164.337158	45.733802
 139	1.3900e-001	165.611267	45.907189
 140	1.4000e-001	166.740417	46.055219
 141	1.4100e-001	167.930603	46.234089
 142	1.4200e-001	169.212341	46.365672
 143	1.4300e-001	170.372009	46.529464
 144	1.4400e-001	171.821594	46.645970
 145	1.4500e-001	172.721863	46.780979
 146	1.4600e-001	173.912048	46.908449
 147	1.4700e-001	175.079346	47.026325
 148	1.4800e-001	176.353455	47.159964
 149	1.4900e-001	177.459717	47.268245
 150	1.5000e-001	178.550720	47.381324
 151	1.5100e-001	180.015564	47.490976
 152	1.5200e-001	181.282043	47.601313
 153	1.5300e-001	182.151794	47.720559
 154	1.5400e-001	183.494568	47.806910
 155	1.5500e-001	184.913635	47.910395
 156	1.5600e-001	185.813904	48.016620
 157	1.5700e-001	186.836243	48.102286
 158	1.5800e-001	188.301086	48.210567
 159	1.5900e-001	189.628601	48.310624
 160	1.6000e-001	190.689087	48.406570
 161	1.6100e-001	191.757202	48.484697
 162	1.6200e-001	193.290710	48.567621
 163	1.6300e-001	194.358826	48.666993
 164	1.6400e-001	195.510864	48.747177
 165	1.6500e-001	196.823120	48.847234
 166	1.6600e-001	198.074341	48.926046
 167	1.6700e-001	199.150085	49.010341
 168	1.6800e-001	200.370789	49.090524
 169	1.6900e-001	201.293945	49.171393
 170	1.7000e-001	202.720642	49.259114
 171	1.7100e-001	204.086304	49.322850
 172	1.7200e-001	205.116272	49.386585
 173	1.7300e-001	206.359863	49.491440
 174	1.7400e-001	207.435608	49.562713
 175	1.7500e-001	208.793640	49.637414
 176	1.7600e-001	209.930420	49.716226
 177	1.7700e-001	211.090088	49.794353
 178	1.7800e-001	212.303162	49.871795
 179	1.7900e-001	213.661194	49.929362
 180	1.8000e-001	214.622498	50.005433
 181	1.8100e-001	215.728760	50.078763
 182	1.8200e-001	217.025757	50.161002
 183	1.8300e-001	218.170166	50.233647
 184	1.8400e-001	219.337463	50.287787
 185	1.8500e-001	220.649719	50.352893
 186	1.8600e-001	221.946716	50.425538
 187	1.8700e-001	223.106384	50.487902
 188	1.8800e-001	224.685669	50.559176
 189	1.8900e-001	225.387573	50.615373
 190	1.9000e-001	226.882935	50.690759
 191	1.9100e-001	227.783203	50.756550
 192	1.9200e-001	228.836060	50.812061
 193	1.9300e-001	230.407715	50.881279
 194	1.9400e-001	231.758118	50.931308
 195	1.9500e-001	232.749939	51.001211
 196	1.9600e-001	233.848572	51.062205
 197	1.9700e-001	235.305786	51.132108
 198	1.9800e-001	236.419678	51.171857
 199	1.9900e-001	237.770081	51.234907
 200	2.0000e-001	239.028931	51.302069
 201	2.0100e-001	240.234375	51.368545
 202	2.0200e-001	240.898132	51.420630
 203	2.0300e-001	242.340088	51.489162
 204	2.0400e-001	243.560791	51.528226
 205	2.0500e-001	244.796753	51.599500
 206	2.0600e-001	245.872498	51.646787
 207	2.0700e-001	247.116089	51.698872
 208	2.0800e-001	248.199463	51.753698
 209	2.0900e-001	249.748230	51.802356
 210	2.1000e-001	250.816345	51.870203
 211	2.1100e-001	251.983643	51.930512
 212	2.1200e-001	253.036499	51.975058
 213	2.1300e-001	254.417419	52.014807
 214	2.1400e-001	255.592346	52.072374
 215	2.1500e-001	256.828308	52.134739
 216	2.1600e-001	257.972717	52.219034
 217	2.1700e-001	258.972168	52.241649
 218	2.1800e-001	260.223389	52.298531
 219	2.1900e-001	261.535645	52.353357
 220	2.2000e-001	262.855530	52.390365
 221	2.2100e-001	264.099121	52.438338
 222	2.2200e-001	264.915466	52.491108
 223	2.2300e-001	266.471863	52.548675
 224	2.2400e-001	267.509460	52.591165
 225	2.2500e-001	268.554688	52.644621
 226	2.2600e-001	270.065308	52.693279
 227	2.2700e-001	271.163940	52.738510
 228	2.2800e-001	272.262573	52.785798
 229	2.2900e-001	273.620605	52.825546
 230	2.3000e-001	274.681091	52.879687
 231	2.3100e-001	275.863647	52.937254
 232	2.3200e-001	277.191162	52.967409
 233	2.3300e-001	278.404236	53.029773
 234	2.3400e-001	279.411316	53.076375
 235	2.3500e-001	280.685425	53.112012
 236	2.3600e-001	282.073975	53.154502
 237	2.3700e-001	283.332825	53.199734
 238	2.3800e-001	284.507751	53.259357
 239	2.3900e-001	285.652161	53.292938
 240	2.4000e-001	286.865234	53.341596
 241	2.4100e-001	288.002014	53.391625
 242	2.4200e-001	289.077759	53.433430
 243	2.4300e-001	290.344238	53.476605
 244	2.4400e-001	291.671753	53.528005
 245	2.4500e-001	292.800903	53.543767
 246	2.4600e-001	294.242859	53.597908
 247	2.4700e-001	295.082092	53.645881
 248	2.4800e-001	296.531677	53.696595
 249	2.4900e-001	297.576904	53.747309
 250	2.5000e-001	298.789978	53.774036
 251	2.5100e-001	300.086975	53.813785
 252	2.5200e-001	298.835754	53.805561
 253	2.5300e-001	297.706604	53.776778
 254	2.5400e-001	296.539307	53.759645
 255	2.5500e-001	295.219421	53.726749
 256	2.5600e-001	293.945313	53.710301
 257	2.5700e-001	292.633057	53.689056
 258	2.5800e-001	291.183472	53.660272
 259	2.5900e-001	290.328979	53.630118
 260	2.6000e-001	289.047241	53.607502
 261	2.6100e-001	287.948608	53.572551
 262	2.6200e-001	286.941528	53.540340
 263	2.6300e-001	285.415649	53.518410
 264	2.6400e-001	284.278870	53.484829
 265	2.6500e-001	282.905579	53.473179
 266	2.6600e-001	282.028198	53.438912
 267	2.6700e-001	280.471802	53.392996
 268	2.6800e-001	279.579163	53.392996
 269	2.6900e-001	278.289795	53.349820
 270	2.7000e-001	277.030945	53.314183
 271	2.7100e-001	275.764465	53.277176
 272	2.7200e-001	274.833679	53.253189
 273	2.7300e-001	273.551941	53.240168
 274	2.7400e-001	272.628784	53.199049
 275	2.7500e-001	271.286011	53.158614
 276	2.7600e-001	269.584656	53.134628
 277	2.7700e-001	268.707275	53.103103
 278	2.7800e-001	267.486572	53.067466
 279	2.7900e-001	266.265869	53.048277
 280	2.8000e-001	264.991760	53.024976
 281	2.8100e-001	263.679504	52.983171
 282	2.8200e-001	262.840271	52.957129
 283	2.8300e-001	261.344910	52.929716
 284	2.8400e-001	260.337830	52.887226
 285	2.8500e-001	259.284973	52.857757
 286	2.8600e-001	258.018494	52.820749
 287	2.8700e-001	256.652832	52.791965
 288	2.8800e-001	255.386353	52.775518
 289	2.8900e-001	254.295349	52.727545
 290	2.9000e-001	252.853394	52.669978
 291	2.9100e-001	251.945496	52.660383
 292	2.9200e-001	250.694275	52.615837
 293	2.9300e-001	249.595642	52.600074
 294	2.9400e-001	248.443604	52.554158
 295	2.9500e-001	247.100830	52.532227
 296	2.9600e-001	245.964050	52.491108
 297	2.9700e-001	244.712830	52.465751
 298	2.9800e-001	243.553162	52.420519
 299	2.9900e-001	242.614746	52.393792
 300	3.0000e-001	241.081238	52.360211
 301	3.0100e-001	240.043640	52.314979
 302	3.0200e-001	238.937378	52.284140
 303	3.0300e-001	237.518311	52.254671
 304	3.0400e-001	236.335754	52.223146
 305	3.0500e-001	235.122681	52.184082
 306	3.0600e-001	233.840942	52.159410
 307	3.0700e-001	232.658386	52.113494
 308	3.0800e-001	231.643677	52.073059
 309	3.0900e-001	230.316162	52.038108
 310	3.1000e-001	229.125977	52.001786
 311	3.1100e-001	228.050232	51.953127
 312	3.1200e-001	226.707458	51.916805
 313	3.1300e-001	225.631714	51.893504
 314	3.1400e-001	224.494934	51.864721
 315	3.1500e-001	223.373413	51.816062
 316	3.1600e-001	222.122192	51.785908
 317	3.1700e-001	220.748901	51.759866
 318	3.1800e-001	219.573975	51.709152
 319	3.1900e-001	218.368530	51.676256
 320	3.2000e-001	217.353821	51.638563
 321	3.2100e-001	215.637207	51.591961
 322	3.2200e-001	214.805603	51.544674
 323	3.2300e-001	213.623047	51.522058
 324	3.2400e-001	212.287903	51.476141
 325	3.2500e-001	211.074829	51.439819
 326	3.2600e-001	210.052490	51.401441
 327	3.2700e-001	208.778381	51.350727
 328	3.2800e-001	207.672119	51.319202
 329	3.2900e-001	206.413269	51.286991
 330	3.3000e-001	205.093384	51.243816
 331	3.3100e-001	203.979492	51.216403
 332	3.3200e-001	202.903748	51.162948
 333	3.3300e-001	201.339722	51.126625
 334	3.3400e-001	200.256348	51.092359
 335	3.3500e-001	199.218750	51.040960
 336	3.3600e-001	198.173523	51.010120
 337	3.3700e-001	196.510315	50.970371
 338	3.3800e-001	195.556641	50.925140
 339	3.3900e-001	194.381714	50.882650
 340	3.4000e-001	193.313599	50.839474
 341	3.4100e-001	191.894531	50.795613
 342	3.4200e-001	190.856934	50.768886
 343	3.4300e-001	189.697266	50.713374
 344	3.4400e-001	188.346863	50.678423
 345	3.4500e-001	187.156677	50.628394
 346	3.4600e-001	186.134338	50.586589
 347	3.4700e-001	184.463501	50.547526
 348	3.4800e-001	183.609009	50.496126
 349	3.4900e-001	182.540894	50.461175
 350	3.5000e-001	181.266785	50.419370
 351	3.5100e-001	180.007935	50.380306
 352	3.5200e-001	178.871155	50.339187
 353	3.5300e-001	177.627563	50.284361
 354	3.5400e-001	176.498413	50.243927
 355	3.5500e-001	175.071716	50.200751
 356	3.5600e-001	174.041748	50.153464
 357	3.5700e-001	172.767639	50.132219
 358	3.5800e-001	171.394348	50.058889
 359	3.5900e-001	170.120239	50.029420
 360	3.6000e-001	168.853760	49.978706
 361	3.6100e-001	168.121338	49.920453
 362	3.6200e-001	166.580200	49.874536
 363	3.6300e-001	165.298462	49.829990
 364	3.6400e-001	164.115906	49.796409
 365	3.6500e-001	163.200378	49.729933
 366	3.6600e-001	161.926270	49.688813
 367	3.6700e-001	160.682678	49.638099
 368	3.6800e-001	159.736633	49.601092
 369	3.6900e-001	158.058167	49.555860
 370	3.7000e-001	157.203674	49.496922
 371	3.7100e-001	155.929565	49.442782
 372	3.7200e-001	155.036926	49.400291
 373	3.7300e-001	153.686523	49.353689
 374	3.7400e-001	152.313232	49.307772
 375	3.7500e-001	151.115417	49.246779
 376	3.7600e-001	149.986267	49.196750
 377	3.7700e-001	148.780823	49.146721
 378	3.7800e-001	147.399902	49.111769
 379	3.7900e-001	146.308899	49.058999
 380	3.8000e-001	145.111084	48.998691
 381	3.8100e-001	144.020081	48.950718
 382	3.8200e-001	142.684937	48.901375
 383	3.8300e-001	141.464233	48.855458
 384	3.8400e-001	140.312195	48.789667
 385	3.8500e-001	139.236450	48.750603
 386	3.8600e-001	137.969971	48.681385
 387	3.8700e-001	136.749268	48.633413
 388	3.8800e-001	135.482788	48.569677
 389	3.8900e-001	134.483337	48.517593
 390	3.9000e-001	133.193970	48.469620
 391	3.9100e-001	131.866455	48.427815
 392	3.9200e-001	130.554199	48.368192
 393	3.9300e-001	129.531860	48.306512
 394	3.9400e-001	128.211975	48.255113
 395	3.9500e-001	127.113342	48.203028
 396	3.9600e-001	125.709534	48.137237
 397	3.9700e-001	124.778748	48.089264
 398	3.9800e-001	123.558044	48.013879
 399	3.9900e-001	122.337341	47.961794
 400	4.0000e-001	121.154785	47.908339
 401	4.0100e-001	120.002747	47.853513
 402	4.0200e-001	118.675232	47.798687
 403	4.0300e-001	117.454529	47.714392
 404	4.0400e-001	116.241455	47.665048
 405	4.0500e-001	114.936829	47.604740
 406	4.0600e-001	114.181519	47.542375
 407	4.0700e-001	112.625122	47.482752
 408	4.0800e-001	111.457825	47.418331
 409	4.0900e-001	110.343933	47.357337
 410	4.1000e-001	109.153748	47.297714
 411	4.1100e-001	107.894897	47.214790
 412	4.1200e-001	106.773376	47.167502
 413	4.1300e-001	105.308533	47.101711
 414	4.1400e-001	104.423523	47.033864
 415	4.1500e-001	103.126526	46.972870
 416	4.1600e-001	101.699829	46.903652
 417	4.1700e-001	100.715637	46.826210
 418	4.1800e-001	99.472046	46.770699
 419	4.1900e-001	98.220825	46.692572
 420	4.2000e-001	97.122192	46.621298
 421	4.2100e-001	95.947266	46.551395
 422	4.2200e-001	94.673157	46.481492
 423	4.2300e-001	93.597412	46.410903
 424	4.2400e-001	92.308044	46.340315
 425	4.2500e-001	91.369629	46.269726
 426	4.2600e-001	89.942932	46.192970
 427	4.2700e-001	88.706970	46.111416
 428	4.2800e-001	87.478638	46.047681
 429	4.2900e-001	86.235046	45.966127
 430	4.3000e-001	85.212708	45.907189
 431	4.3100e-001	83.992004	45.806446
 432	4.3200e-001	82.565308	45.731746
 433	4.3300e-001	81.573486	45.661157
 434	4.3400e-001	80.345154	45.570695
 435	4.3500e-001	78.903198	45.495309
 436	4.3600e-001	78.163147	45.415811
 437	4.3700e-001	76.744080	45.339055
 438	4.3800e-001	75.515747	45.245165
 439	4.3900e-001	74.348450	45.164982
 440	4.4000e-001	72.921753	45.081372
 441	4.4100e-001	71.594238	44.983371
 442	4.4200e-001	70.808411	44.877831
 443	4.4300e-001	69.480896	44.805872
 444	4.4400e-001	68.237305	44.714723
 445	4.4500e-001	67.092896	44.622890
 446	4.4600e-001	66.276550	44.535854
 447	4.4700e-001	64.750671	44.418663
 448	4.4800e-001	63.796997	44.328885
 449	4.4900e-001	62.385559	44.240478
 450	4.5000e-001	61.210632	44.142477
 451	4.5100e-001	60.066223	44.043790
 452	4.5200e-001	58.586121	43.926600
 453	4.5300e-001	57.571411	43.831339
 454	4.5400e-001	56.266785	43.720317
 455	4.5500e-001	55.252075	43.609294
 456	4.5600e-001	53.977966	43.499642
 457	4.5700e-001	52.642822	43.393417
 458	4.5800e-001	51.696777	43.275541
 459	4.5900e-001	50.033569	43.156979
 460	4.6000e-001	49.186707	43.044586
 461	4.6100e-001	47.897339	42.915745
 462	4.6200e-001	46.699524	42.784163
 463	4.6300e-001	45.738220	42.656007
 464	4.6400e-001	44.044495	42.534019
 465	4.6500e-001	43.106079	42.416828
 466	4.6600e-001	41.831970	42.260574
 467	4.6700e-001	40.649414	42.118027
 468	4.6800e-001	39.634705	41.976164
 469	4.6900e-001	38.536072	41.821966
 470	4.7000e-001	37.361145	41.664341
 471	4.7100e-001	36.094666	41.519738
 472	4.7200e-001	34.927368	41.344980
 473	4.7300e-001	33.088684	41.179816
 474	4.7400e-001	32.310486	41.005059
 475	4.7500e-001	31.196594	40.822762
 476	4.7600e-001	29.754639	40.639095
 477	4.7700e-001	28.892517	40.469134
 478	4.7800e-001	27.412415	40.244348
 479	4.7900e-001	26.458740	40.045603
 480	4.8000e-001	25.108337	39.836579
 481	4.8100e-001	24.124146	39.606310
 482	4.8200e-001	22.857666	39.371243
 483	4.8300e-001	21.423340	39.147142
 484	4.8400e-001	20.355225	38.894942
 485	4.8500e-001	19.035339	38.638631
 486	4.8600e-001	18.074036	38.385746
 487	4.8700e-001	16.944885	38.092427
 488	4.8800e-001	15.678406	37.816926
 489	4.8900e-001	14.236450	37.523607
