»»»»»»»»»»»»»»»»»»»»»»»»»»»»»»»»»»»» Hysteresis ««««««««««««««««««««««««««««««««««««
»»»  Executed Version:	5.16.2
»»»  Vision Version:	5.16.10 (R)
»»»  Vision Compiled:	4/26/18
»»»  Driver Version:	5.16.6
»»»  Windows Version:	Windows 8
»»»  Processor Information:	x86 (AMD or Intel) - 8 Processors
»»»  Tester Name:	PPM21016-863
»»»  Tester S/N:	PPM21016-863
»»»  Internal Amp Type:	 RTI ML200V    
»»»  Internal Amp S/N:	 iAB2-0000     
»»»  Execution Count:	1
»»»»»»»»»»»»»»»»»»»»»»»»»»»»»»»»»»»»»»»»»»««««««««««««««««««««««««««««««««««««««««««

Stored:	5/23/2018 - 9:4:29
Configured:	05/23/18 06:37:56 AM
Executed:	05/23/18 09:04:08 AM

»»»»»»»»»»»»»»»»»»»»»»»»»»»»»»»»»»» Sample Info ««««««««««««««««««««««««««««««««««««
Sample Name:	Internal Reference Cap.
Lot Name:	N/A
Wafer Name:	N/A
Die Row/Column:	0/0
Capacitor Number:	0
Sample Area (cm2):	7.85e-005
Sample Thickness (µm):	1.00e-001

Mux Loop Adjustment:	Disabled

Amplifier:	Internal

»»»»»»»»»»»»»»»»»»»»»»»»»»»»»»»»»»» Tester Info «««««««««««««««««««««««««««««««««««
Tester Name:	PPM21016-863
Tester Serial Number:	PPM21016-863
Return Signal Amp. Level:	0.19 [Index: 3]

»»»»»»»»»»»»»»»»»»»»»»»»»»»»»»»» Hysteresis Info ««««««««««««««««««««««««««««««««««
Task Name:	Hyst-1
Field (kV/cm):	0.03
Field:	300.00 (kV/cm)
Hysteresis Period (ms):	2.00e+000
Preset:	Enabled
Preset Delay (ms):	1.00e+003
Profile:	Double Bipolar

»»»»»»»»»»»»»»»»»»»»»»»»»»»»»»»»»»»»»» Data «««««««««««««««««««««««««««««««««««««««
Points:	2001

Valid Data

Point	Time (ms)	Field (kV/cm)	Measured Polarization
   1	1.0000e-003	0.099182	-41.050339
   2	2.0000e-003	1.022339	-41.208736
   3	3.0000e-003	2.342224	-41.254722
   4	4.0000e-003	3.608704	-41.229174
   5	5.0000e-003	4.577637	-41.673707
   6	6.0000e-003	5.867004	-41.157640
   7	7.0000e-003	7.133484	-41.035010
   8	8.0000e-003	7.324219	-41.622612
   9	9.0000e-003	9.735107	-40.580258
  10	1.0000e-002	10.818481	-40.825518
  11	1.1000e-002	11.878967	-40.687559
  12	1.2000e-002	13.229370	-40.554710
  13	1.3000e-002	14.381409	-40.396313
  14	1.4000e-002	15.571594	-40.524053
  15	1.5000e-002	16.845703	-40.319670
  16	1.6000e-002	17.921448	-40.289012
  17	1.7000e-002	19.073486	-40.171492
  18	1.8000e-002	20.500183	-40.023314
  19	1.9000e-002	21.629333	-40.028424
  20	2.0000e-002	22.789001	-39.829150
  21	2.1000e-002	23.956299	-39.302864
  22	2.2000e-002	25.154114	-39.466370
  23	2.3000e-002	25.604248	-39.670753
  24	2.4000e-002	27.931213	-39.221111
  25	2.5000e-002	28.800964	-38.899207
  26	2.6000e-002	30.044556	-38.868550
  27	2.7000e-002	31.188965	-38.628400
  28	2.8000e-002	32.592773	-38.424017
  29	2.9000e-002	33.515930	-38.173647
  30	3.0000e-002	34.660339	-37.861963
  31	3.1000e-002	35.980225	-37.601375
  32	3.2000e-002	37.094116	-36.860486
  33	3.3000e-002	38.040161	-36.962678
  34	3.4000e-002	39.466858	-36.344419
  35	3.5000e-002	40.725708	-35.685284
  36	3.6000e-002	41.809082	-34.096205
  37	3.7000e-002	42.922974	-34.269931
  38	3.8000e-002	43.228149	-33.723206
  39	3.9000e-002	45.478821	-32.164785
  40	4.0000e-002	46.409607	-30.744323
  41	4.1000e-002	47.637939	-29.737736
  42	4.2000e-002	48.820496	-28.628958
  43	4.3000e-002	50.148010	-26.702648
  44	4.4000e-002	51.094055	-25.256638
  45	4.5000e-002	52.352905	-23.350765
  46	4.6000e-002	53.710938	-21.444893
  47	4.7000e-002	54.664612	-19.728076
  48	4.8000e-002	55.938721	-17.617820
  49	4.9000e-002	57.258606	-15.701729
  50	5.0000e-002	58.357239	-13.269571
  51	5.1000e-002	59.532166	-10.617700
  52	5.2000e-002	60.722351	-9.151252
  53	5.3000e-002	61.393738	-7.454872
  54	5.4000e-002	63.262939	-4.537304
  55	5.5000e-002	64.262390	-2.452597
  56	5.6000e-002	65.551758	-0.408766
  57	5.7000e-002	66.658020	1.905872
  58	5.8000e-002	68.008423	3.944593
  59	5.9000e-002	69.206238	5.773822
  60	6.0000e-002	70.335388	7.868748
  61	6.1000e-002	71.556091	9.611114
  62	6.2000e-002	72.914124	11.506767
  63	6.3000e-002	74.005127	13.152050
  64	6.4000e-002	75.263977	14.792224
  65	6.5000e-002	76.454163	16.493714
  66	6.6000e-002	77.598572	17.249931
  67	6.7000e-002	78.765869	19.523692
  68	6.8000e-002	79.566956	21.046346
  69	6.9000e-002	81.306458	21.950741
  70	7.0000e-002	82.511902	23.314998
  71	7.1000e-002	83.503723	24.280708
  72	7.2000e-002	84.869385	25.466130
  73	7.3000e-002	86.097717	26.355197
  74	7.4000e-002	87.364197	27.259592
  75	7.5000e-002	88.539124	28.148658
  76	7.6000e-002	89.759827	28.736259
  77	7.7000e-002	91.041565	29.456710
  78	7.8000e-002	92.315674	30.304899
  79	7.9000e-002	93.971252	31.050897
  80	8.0000e-002	94.657898	31.362582
  81	8.1000e-002	95.764160	32.364059
  82	8.2000e-002	96.954346	32.476469
  83	8.3000e-002	98.312378	32.691072
  84	8.4000e-002	99.334717	33.375755
  85	8.5000e-002	100.502014	33.963356
  86	8.6000e-002	101.753235	34.269931
  87	8.7000e-002	102.844238	34.571396
  88	8.8000e-002	104.103088	35.000600
  89	8.9000e-002	105.216980	35.337832
  90	9.0000e-002	106.590271	35.726160
  91	9.1000e-002	107.841492	36.078721
  92	9.2000e-002	108.970642	36.334200
  93	9.3000e-002	110.168457	36.845157
  94	9.4000e-002	111.381531	36.834938
  95	9.5000e-002	112.571716	37.345896
  96	9.6000e-002	113.945007	37.994812
  97	9.7000e-002	116.409302	38.515989
  98	9.8000e-002	115.684509	38.112332
  99	9.9000e-002	117.515564	38.398469
 100	1.0000e-001	118.576050	38.490441
 101	1.0100e-001	119.804382	38.720372
 102	1.0200e-001	120.887756	39.057604
 103	1.0300e-001	122.222900	39.323302
 104	1.0400e-001	123.344421	39.420384
 105	1.0500e-001	124.565125	39.655425
 106	1.0600e-001	125.892639	40.064191
 107	1.0700e-001	127.265930	40.099958
 108	1.0800e-001	128.608704	40.105067
 109	1.0900e-001	129.440308	40.488286
 110	1.1000e-001	130.661011	40.575148
 111	1.1100e-001	131.820679	40.191930
 112	1.1200e-001	131.706238	40.278793
 113	1.1300e-001	134.468079	41.295599
 114	1.1400e-001	135.383606	41.162750
 115	1.1500e-001	136.688232	41.525530
 116	1.1600e-001	137.718201	41.576625
 117	1.1700e-001	139.038086	41.699255
 118	1.1800e-001	140.296936	42.041597
 119	1.1900e-001	141.418457	41.944515
 120	1.2000e-001	142.677307	42.266418
 121	1.2100e-001	143.859863	42.353281
 122	1.2200e-001	145.149231	42.470801
 123	1.2300e-001	146.575928	42.940882
 124	1.2400e-001	147.758484	42.731390
 125	1.2500e-001	148.765564	42.802924
 126	1.2600e-001	149.925232	43.048184
 127	1.2700e-001	150.558472	42.874458
 128	1.2800e-001	152.412415	43.170813
 129	1.2900e-001	153.526306	43.472278
 130	1.3000e-001	154.670715	43.528484
 131	1.3100e-001	155.845642	43.579579
 132	1.3200e-001	157.218933	43.625566
 133	1.3300e-001	158.355713	43.717538
 134	1.3400e-001	159.545898	43.773743
 135	1.3500e-001	160.736084	44.136523
 136	1.3600e-001	161.949158	43.916812
 137	1.3700e-001	163.154602	44.151852
 138	1.3800e-001	164.657593	44.555509
 139	1.3900e-001	165.557861	44.504413
 140	1.4000e-001	166.923523	44.432879
 141	1.4100e-001	167.778015	44.780330
 142	1.4200e-001	168.655396	43.993455
 143	1.4300e-001	170.249939	44.862083
 144	1.4400e-001	171.806335	44.785440
 145	1.4500e-001	172.737122	44.770111
 146	1.4600e-001	174.102783	45.056247
 147	1.4700e-001	175.170898	45.143110
 148	1.4800e-001	176.338196	45.138000
 149	1.4900e-001	177.749634	45.265740
 150	1.5000e-001	178.672791	45.311726
 151	1.5100e-001	180.015564	45.189096
 152	1.5200e-001	181.037903	45.347493
 153	1.5300e-001	182.067871	45.403698
 154	1.5400e-001	183.601379	45.510999
 155	1.5500e-001	184.669495	45.643848
 156	1.5600e-001	185.989380	45.868670
 157	1.5700e-001	187.767029	46.742407
 158	1.5800e-001	188.217163	45.792026
 159	1.5900e-001	189.476013	45.975971
 160	1.6000e-001	190.910339	45.975971
 161	1.6100e-001	192.024231	46.098601
 162	1.6200e-001	193.275452	46.124149
 163	1.6300e-001	194.328308	45.899327
 164	1.6400e-001	195.327759	46.256998
 165	1.6500e-001	196.685791	46.364299
 166	1.6600e-001	198.013306	46.614668
 167	1.6700e-001	199.134827	46.502257
 168	1.6800e-001	200.325012	46.594230
 169	1.6900e-001	201.553345	46.522696
 170	1.7000e-001	202.667236	46.936571
 171	1.7100e-001	203.865051	46.798613
 172	1.7200e-001	204.895020	46.492038
 173	1.7300e-001	205.810547	46.364299
 174	1.7400e-001	207.542419	46.992777
 175	1.7500e-001	208.724976	47.120516
 176	1.7600e-001	209.877014	47.100078
 177	1.7700e-001	211.021423	47.186941
 178	1.7800e-001	212.326050	47.248256
 179	1.7900e-001	213.554382	47.248256
 180	1.8000e-001	214.530945	47.289132
 181	1.8100e-001	216.049194	47.335118
 182	1.8200e-001	217.094421	47.534392
 183	1.8300e-001	218.238831	47.559940
 184	1.8400e-001	218.673706	47.176721
 185	1.8500e-001	220.596313	48.597184
 186	1.8600e-001	221.839905	47.513954
 187	1.8700e-001	223.075867	47.631474
 188	1.8800e-001	224.319458	47.851186
 189	1.8900e-001	225.547791	47.575268
 190	1.9000e-001	226.707458	47.927829
 191	1.9100e-001	227.790833	47.830747
 192	1.9200e-001	229.034424	47.968706
 193	1.9300e-001	230.216980	48.213966
 194	1.9400e-001	231.407166	48.045350
 195	1.9500e-001	232.627869	48.305938
 196	1.9600e-001	233.886719	48.254842
 197	1.9700e-001	235.137939	48.428568
 198	1.9800e-001	236.244202	48.515431
 199	1.9900e-001	237.541199	48.525650
 200	2.0000e-001	239.097595	49.031498
 201	2.0100e-001	239.768982	48.561417
 202	2.0200e-001	241.035461	48.612513
 203	2.0300e-001	242.378235	48.816896
 204	2.0400e-001	244.812012	49.511798
 205	2.0500e-001	244.682312	48.612513
 206	2.0600e-001	246.002197	48.939525
 207	2.0700e-001	246.879578	48.801567
 208	2.0800e-001	248.329163	49.057046
 209	2.0900e-001	249.351501	48.995731
 210	2.1000e-001	250.770569	49.097922
 211	2.1100e-001	251.892090	49.404497
 212	2.1200e-001	253.150940	49.215443
 213	2.1300e-001	254.394531	49.378949
 214	2.1400e-001	255.546570	49.378949
 215	2.1500e-001	256.462097	50.017646
 216	2.1600e-001	257.987976	49.276757
 217	2.1700e-001	258.811951	49.588442
 218	2.1800e-001	259.971619	49.465812
 219	2.1900e-001	261.375427	49.654866
 220	2.2000e-001	263.298035	50.528604
 221	2.2100e-001	263.763428	49.787715
 222	2.2200e-001	264.808655	49.751948
 223	2.2300e-001	266.212463	49.935893
 224	2.2400e-001	267.539978	49.992098
 225	2.2500e-001	268.608093	50.002317
 226	2.2600e-001	269.920349	50.150495
 227	2.2700e-001	271.110535	50.273125
 228	2.2800e-001	272.346497	50.298673
 229	2.2900e-001	273.529053	50.370207
 230	2.3000e-001	274.650574	50.855617
 231	2.3100e-001	275.169373	50.344659
 232	2.3200e-001	277.030945	50.436631
 233	2.3300e-001	278.251648	50.666562
 234	2.3400e-001	279.365540	50.497946
 235	2.3500e-001	280.731201	50.671672
 236	2.3600e-001	282.051086	50.707439
 237	2.3700e-001	283.058167	50.809630
 238	2.3800e-001	284.217834	50.932260
 239	2.3900e-001	285.484314	51.003794
 240	2.4000e-001	286.659241	51.203068
 241	2.4100e-001	287.963867	51.090657
 242	2.4200e-001	289.131165	51.100876
 243	2.4300e-001	290.367126	51.146863
 244	2.4400e-001	291.366577	51.223506
 245	2.4500e-001	292.686462	51.223506
 246	2.4600e-001	293.983459	51.111096
 247	2.4700e-001	295.417786	52.020600
 248	2.4800e-001	296.424866	51.402341
 249	2.4900e-001	297.660828	51.550519
 250	2.5000e-001	298.553467	51.703806
 251	2.5100e-001	298.576355	50.988466
 252	2.5200e-001	299.507141	51.770231
 253	2.5300e-001	297.760010	51.708916
 254	2.5400e-001	296.638489	51.703806
 255	2.5500e-001	295.646667	51.637382
 256	2.5600e-001	294.097900	51.760012
 257	2.5700e-001	292.991638	51.714026
 258	2.5800e-001	291.793823	51.724245
 259	2.5900e-001	290.382385	51.744683
 260	2.6000e-001	289.367676	52.025710
 261	2.6100e-001	288.185120	51.606724
 262	2.6200e-001	286.918640	51.596505
 263	2.6300e-001	285.850525	51.744683
 264	2.6400e-001	284.751892	51.632272
 265	2.6500e-001	283.409119	51.673149
 266	2.6600e-001	282.211304	51.596505
 267	2.6700e-001	280.143738	51.243945
 268	2.6800e-001	279.792786	51.642491
 269	2.6900e-001	278.549194	51.535190
 270	2.7000e-001	277.351379	51.821327
 271	2.7100e-001	276.115417	51.417670
 272	2.7200e-001	275.039673	51.591396
 273	2.7300e-001	273.658752	51.514752
 274	2.7400e-001	272.590637	50.988466
 275	2.7500e-001	271.514893	51.524971
 276	2.7600e-001	270.103455	51.463656
 277	2.7700e-001	268.920898	51.264383
 278	2.7800e-001	268.241882	51.550519
 279	2.7900e-001	266.716003	51.381903
 280	2.8000e-001	265.281677	51.330807
 281	2.8100e-001	264.091492	51.366574
 282	2.8200e-001	262.809753	51.213287
 283	2.8300e-001	261.093140	51.320588
 284	2.8400e-001	260.635376	51.284821
 285	2.8500e-001	259.346008	50.743206
 286	2.8600e-001	258.071899	51.310369
 287	2.8700e-001	256.988525	51.177520
 288	2.8800e-001	255.851746	51.228616
 289	2.8900e-001	254.592896	50.227139
 290	2.9000e-001	253.570557	51.284821
 291	2.9100e-001	252.128601	50.947589
 292	2.9200e-001	250.907898	51.065109
 293	2.9300e-001	249.732971	50.973137
 294	2.9400e-001	248.191833	51.243945
 295	2.9500e-001	247.467041	50.901603
 296	2.9600e-001	246.208191	50.952699
 297	2.9700e-001	245.010376	50.681891
 298	2.9800e-001	244.438171	50.901603
 299	2.9900e-001	242.370605	50.937370
 300	3.0000e-001	241.577148	50.947589
 301	3.0100e-001	240.516663	51.075328
 302	3.0200e-001	239.051819	50.824959
 303	3.0300e-001	237.808228	50.671672
 304	3.0400e-001	236.648560	50.554152
 305	3.0500e-001	235.435486	50.681891
 306	3.0600e-001	234.245300	50.579700
 307	3.0700e-001	233.146667	50.687001
 308	3.0800e-001	231.781006	50.472398
 309	3.0900e-001	230.667114	50.472398
 310	3.1000e-001	229.522705	50.446851
 311	3.1100e-001	228.202820	50.595028
 312	3.1200e-001	227.279663	50.375316
 313	3.1300e-001	225.685120	50.370207
 314	3.1400e-001	223.884583	50.007427
 315	3.1500e-001	223.541260	50.176043
 316	3.1600e-001	222.221375	50.273125
 317	3.1700e-001	220.962524	50.298673
 318	3.1800e-001	219.856262	50.114728
 319	3.1900e-001	218.597412	49.854140
 320	3.2000e-001	217.262268	50.124947
 321	3.2100e-001	216.156006	49.925674
 322	3.2200e-001	215.126038	49.966550
 323	3.2300e-001	213.867188	49.956331
 324	3.2400e-001	212.615967	50.022756
 325	3.2500e-001	211.341858	49.879688
 326	3.2600e-001	210.220337	49.803044
 327	3.2700e-001	208.892822	50.017646
 328	3.2800e-001	207.695007	49.864359
 329	3.2900e-001	206.581116	49.552675
 330	3.3000e-001	205.314636	49.736619
 331	3.3100e-001	204.277039	49.900126
 332	3.3200e-001	202.903748	49.721291
 333	3.3300e-001	201.789856	49.644647
 334	3.3400e-001	200.599670	49.895016
 335	3.3500e-001	199.424744	49.573113
 336	3.3600e-001	198.226929	49.578223
 337	3.3700e-001	197.151184	49.593551
 338	3.3800e-001	195.724487	49.332963
 339	3.3900e-001	194.595337	49.312525
 340	3.4000e-001	193.412781	49.430045
 341	3.4100e-001	191.871643	49.348292
 342	3.4200e-001	191.131592	49.174566
 343	3.4300e-001	189.781189	49.261429
 344	3.4400e-001	188.529968	49.271648
 345	3.4500e-001	186.714172	48.760690
 346	3.4600e-001	186.332703	49.281867
 347	3.4700e-001	184.837341	49.128580
 348	3.4800e-001	183.776855	49.000840
 349	3.4900e-001	182.518005	49.011060
 350	3.5000e-001	181.434631	48.857772
 351	3.5100e-001	180.183411	48.898649
 352	3.5200e-001	179.008484	48.908868
 353	3.5300e-001	177.841187	48.750471
 354	3.5400e-001	176.582336	48.668718
 355	3.5500e-001	175.277710	48.811786
 356	3.5600e-001	174.224854	48.658499
 357	3.5700e-001	172.752380	48.791348
 358	3.5800e-001	171.829224	48.602293
 359	3.5900e-001	170.639038	48.535869
 360	3.6000e-001	169.441223	48.581855
 361	3.6100e-001	169.120789	48.433677
 362	3.6200e-001	166.793823	48.489883
 363	3.6300e-001	165.679932	48.305938
 364	3.6400e-001	164.619446	48.413239
 365	3.6500e-001	163.398743	48.438787
 366	3.6600e-001	162.185669	47.994254
 367	3.6700e-001	161.041260	48.152651
 368	3.6800e-001	159.797668	48.127103
 369	3.6900e-001	158.538818	48.050459
 370	3.7000e-001	157.333374	48.045350
 371	3.7100e-001	156.196594	47.897172
 372	3.7200e-001	155.418396	48.249733
 373	3.7300e-001	154.098511	48.076007
 374	3.7400e-001	152.580261	47.800090
 375	3.7500e-001	151.321411	47.585488
 376	3.7600e-001	150.260925	47.794980
 377	3.7700e-001	149.490356	47.605926
 378	3.7800e-001	147.750854	47.646803
 379	3.7900e-001	146.682739	47.616145
 380	3.8000e-001	145.339966	47.396433
 381	3.8100e-001	144.172668	47.600816
 382	3.8200e-001	142.921448	47.452639
 383	3.8300e-001	141.723633	47.304461
 384	3.8400e-001	140.594482	47.794980
 385	3.8500e-001	139.526367	47.197160
 386	3.8600e-001	138.145447	47.284023
 387	3.8700e-001	136.932373	47.227817
 388	3.8800e-001	135.734558	47.641693
 389	3.8900e-001	134.651184	46.957010
 390	3.9000e-001	133.415222	47.100078
 391	3.9100e-001	132.133484	47.084749
 392	3.9200e-001	132.324219	47.708117
 393	3.9300e-001	129.325867	46.957010
 394	3.9400e-001	128.608704	46.819051
 395	3.9500e-001	127.281189	46.732188
 396	3.9600e-001	126.197815	46.328532
 397	3.9700e-001	124.877930	46.619778
 398	3.9800e-001	123.733521	46.456271
 399	3.9900e-001	122.589111	46.527805
 400	4.0000e-001	121.383667	46.466490
 401	4.0100e-001	120.071411	46.369408
 402	4.0200e-001	118.949890	46.410285
 403	4.0300e-001	117.729187	46.165025
 404	4.0400e-001	116.531372	46.277436
 405	4.0500e-001	115.455627	46.246779
 406	4.0600e-001	114.196777	46.067943
 407	4.0700e-001	112.930298	46.706640
 408	4.0800e-001	112.709045	46.032176
 409	4.0900e-001	110.450745	45.965752
 410	4.1000e-001	109.352112	45.761369
 411	4.1100e-001	108.192444	45.812465
 412	4.1200e-001	107.048035	45.684725
 413	4.1300e-001	105.796814	45.720492
 414	4.1400e-001	104.553223	45.694944
 415	4.1500e-001	103.370667	45.546767
 416	4.1600e-001	102.279663	45.383260
 417	4.1700e-001	100.982666	45.505890
 418	4.1800e-001	99.777222	45.383260
 419	4.1900e-001	98.808289	45.255521
 420	4.2000e-001	97.381592	45.250411
 421	4.2100e-001	96.122742	45.327055
 422	4.2200e-001	94.841003	45.051138
 423	4.2300e-001	93.666077	45.306616
 424	4.2400e-001	92.613220	44.294920
 425	4.2500e-001	91.209412	44.887631
 426	4.2600e-001	90.141296	44.739453
 427	4.2700e-001	89.035034	43.952579
 428	4.2800e-001	87.944031	44.586166
 429	4.2900e-001	86.540222	44.550399
 430	4.3000e-001	85.327148	44.351126
 431	4.3100e-001	84.144592	44.259153
 432	4.3200e-001	82.824707	44.320468
 433	4.3300e-001	81.855774	44.289811
 434	4.3400e-001	80.757141	44.085428
 435	4.3500e-001	79.071045	43.886154
 436	4.3600e-001	78.178406	43.937250
 437	4.3700e-001	76.980591	43.814620
 438	4.3800e-001	75.851440	43.773743
 439	4.3900e-001	74.699402	43.681771
 440	4.4000e-001	73.822021	43.487607
 441	4.4100e-001	72.189331	43.574470
 442	4.4200e-001	70.762634	43.497826
 443	4.4300e-001	69.664001	42.618979
 444	4.4400e-001	68.557739	43.456950
 445	4.4500e-001	67.329407	43.206580
 446	4.4600e-001	66.207886	43.053293
 447	4.4700e-001	65.055847	43.043074
 448	4.4800e-001	63.697815	42.823362
 449	4.4900e-001	62.599182	42.777376
 450	4.5000e-001	61.241150	42.705842
 451	4.5100e-001	60.050964	42.583212
 452	4.5200e-001	58.914185	42.409486
 453	4.5300e-001	57.769775	42.327733
 454	4.5400e-001	56.518555	42.567883
 455	4.5500e-001	55.290222	42.123350
 456	4.5600e-001	53.993225	42.138679
 457	4.5700e-001	52.963257	41.847433
 458	4.5800e-001	51.712036	41.765680
 459	4.5900e-001	50.582886	41.683927
 460	4.6000e-001	49.446106	41.459105
 461	4.6100e-001	48.240662	41.239393
 462	4.6200e-001	46.829224	41.178078
 463	4.6300e-001	45.806885	41.106544
 464	4.6400e-001	44.784546	40.851066
 465	4.6500e-001	43.266296	40.830627
 466	4.6600e-001	42.648315	40.616025
 467	4.6700e-001	41.099548	40.084629
 468	4.6800e-001	39.672852	40.202149
 469	4.6900e-001	38.536072	39.905794
 470	4.7000e-001	37.452698	39.936451
 471	4.7100e-001	36.285400	38.940084
 472	4.7200e-001	34.896851	39.256878
 473	4.7300e-001	33.523560	38.888988
 474	4.7400e-001	32.638550	38.286058
 475	4.7500e-001	31.364441	38.459784
 476	4.7600e-001	30.166626	37.928388
 477	4.7700e-001	29.060364	37.805758
 478	4.7800e-001	27.732849	37.417430
 479	4.7900e-001	26.756287	37.243704
 480	4.8000e-001	25.421143	36.814500
 481	4.8100e-001	23.681641	35.961201
 482	4.8200e-001	23.109436	35.879447
 483	4.8300e-001	21.804810	35.618859
 484	4.8400e-001	20.683289	35.000600
 485	4.8500e-001	19.424438	34.504971
 486	4.8600e-001	17.723083	34.223945
 487	4.8700e-001	17.166138	33.564809
 488	4.8800e-001	15.747070	32.946550
