»»»»»»»»»»»»»»»»»»»»»»»»»»»»»»»»»»»» Hysteresis ««««««««««««««««««««««««««««««««««««
»»»  Executed Version:	5.16.2
»»»  Vision Version:	5.16.10 (R)
»»»  Vision Compiled:	4/26/18
»»»  Driver Version:	5.16.6
»»»  Windows Version:	Windows 8
»»»  Processor Information:	x86 (AMD or Intel) - 8 Processors
»»»  Tester Name:	PPM21016-863
»»»  Tester S/N:	PPM21016-863
»»»  Internal Amp Type:	 RTI ML200V    
»»»  Internal Amp S/N:	 iAB2-0000     
»»»  Execution Count:	1
»»»»»»»»»»»»»»»»»»»»»»»»»»»»»»»»»»»»»»»»»»««««««««««««««««««««««««««««««««««««««««««

Stored:	8/22/2018 - 6:24:44
Configured:	08/22/18 06:20:09 AM
Executed:	08/22/18 06:24:16 AM

»»»»»»»»»»»»»»»»»»»»»»»»»»»»»»»»»»» Sample Info ««««««««««««««««««««««««««««««««««««
Sample Name:	Internal Reference Cap.
Lot Name:	N/A
Wafer Name:	N/A
Die Row/Column:	0/0
Capacitor Number:	0
Sample Area (cm2):	6.20e-005
Sample Thickness (µm):	1.00e-001

Mux Loop Adjustment:	Disabled

Amplifier:	Internal

»»»»»»»»»»»»»»»»»»»»»»»»»»»»»»»»»»» Tester Info «««««««««««««««««««««««««««««««««««
Tester Name:	PPM21016-863
Tester Serial Number:	PPM21016-863
Return Signal Amp. Level:	0.19 [Index: 3]

»»»»»»»»»»»»»»»»»»»»»»»»»»»»»»»» Hysteresis Info ««««««««««««««««««««««««««««««««««
Task Name:	Hyst-1
Volts:	-3.00
Field:	-300.00 (kV/cm)
Hysteresis Period (ms):	2.00e+000
Preset:	Enabled
Preset Delay (ms):	1.00e+003
Profile:	Double Bipolar

»»»»»»»»»»»»»»»»»»»»»»»»»»»»»»»»»»»»»» Data «««««««««««««««««««««««««««««««««««««««
Points:	2001

Valid Data

Point	Time (ms)	Field (kV/cm)	Measured Polarization
   1	1.0000e-003	0.091553	54.228112
   2	2.0000e-003	-0.923157	54.299311
   3	3.0000e-003	-2.143860	54.351093
   4	4.0000e-003	-3.334045	54.273421
   5	5.0000e-003	-4.600525	54.279893
   6	6.0000e-003	-5.928040	54.266948
   7	7.0000e-003	-7.087708	54.228112
   8	8.0000e-003	-8.102417	54.228112
   9	9.0000e-003	-9.384155	54.266948
  10	1.0000e-002	-10.444641	54.124549
  11	1.1000e-002	-11.619568	54.286366
  12	1.2000e-002	-13.038635	54.182803
  13	1.3000e-002	-14.091492	54.215167
  14	1.4000e-002	-15.411377	54.215167
  15	1.5000e-002	-16.647339	54.105131
  16	1.6000e-002	-17.669678	54.273421
  17	1.7000e-002	-19.012451	54.131022
  18	1.8000e-002	-20.126343	54.059822
  19	1.9000e-002	-21.339417	53.956259
  20	2.0000e-002	-22.583008	54.033932
  21	2.1000e-002	-23.742676	53.949787
  22	2.2000e-002	-24.826050	53.813860
  23	2.3000e-002	-26.184082	54.040404
  24	2.4000e-002	-27.420044	53.826806
  25	2.5000e-002	-28.656006	53.826806
  26	2.6000e-002	-29.830933	53.716770
  27	2.7000e-002	-30.899048	53.606735
  28	2.8000e-002	-32.150269	53.645571
  29	2.9000e-002	-33.386230	53.664989
  30	3.0000e-002	-34.545898	53.496699
  31	3.1000e-002	-35.881042	53.542008
  32	3.2000e-002	-36.964417	53.444918
  33	3.3000e-002	-38.055420	53.380191
  34	3.4000e-002	-39.314270	53.354300
  35	3.5000e-002	-40.580750	53.231319
  36	3.6000e-002	-41.687012	52.998303
  37	3.7000e-002	-42.839050	53.140702
  38	3.8000e-002	-43.998718	52.713505
  39	3.9000e-002	-45.272827	52.901213
  40	4.0000e-002	-46.516418	52.726450
  41	4.1000e-002	-47.927856	52.830013
  42	4.2000e-002	-49.011230	52.603469
  43	4.3000e-002	-50.285339	52.519325
  44	4.4000e-002	-51.399231	52.428707
  45	4.5000e-002	-52.520752	52.331617
  46	4.6000e-002	-53.741455	52.176272
  47	4.7000e-002	-55.046082	52.176272
  48	4.8000e-002	-56.114197	51.956201
  49	4.9000e-002	-57.411194	51.716712
  50	5.0000e-002	-58.677673	51.729658
  51	5.1000e-002	-59.745789	51.477223
  52	5.2000e-002	-60.981750	51.328351
  53	5.3000e-002	-62.248230	51.075917
  54	5.4000e-002	-63.423157	50.946463
  55	5.5000e-002	-64.537048	50.758756
  56	5.6000e-002	-65.765381	50.357449
  57	5.7000e-002	-66.833496	50.227996
  58	5.8000e-002	-68.176270	50.027343
  59	5.9000e-002	-69.343567	49.768436
  60	6.0000e-002	-70.503235	49.438329
  61	6.1000e-002	-71.655273	49.037023
  62	6.2000e-002	-73.005676	48.687498
  63	6.3000e-002	-73.966980	48.325028
  64	6.4000e-002	-75.294495	48.085539
  65	6.5000e-002	-76.446533	47.548306
  66	6.6000e-002	-77.682495	47.211727
  67	6.7000e-002	-78.804016	46.655077
  68	6.8000e-002	-80.108643	46.350861
  69	6.9000e-002	-81.359863	45.632393
  70	7.0000e-002	-82.427979	45.244032
  71	7.1000e-002	-83.641052	44.622655
  72	7.2000e-002	-84.884644	44.007750
  73	7.3000e-002	-86.097717	43.237502
  74	7.4000e-002	-87.364197	42.590234
  75	7.5000e-002	-88.569641	41.787621
  76	7.6000e-002	-89.599609	41.010900
  77	7.7000e-002	-90.850830	40.104725
  78	7.8000e-002	-91.835022	39.237385
  79	7.9000e-002	-93.109131	38.376519
  80	8.0000e-002	-94.474792	37.256745
  81	8.1000e-002	-95.573425	36.195226
  82	8.2000e-002	-96.702576	35.114288
  83	8.3000e-002	-97.938538	33.936261
  84	8.4000e-002	-99.151611	32.687033
  85	8.5000e-002	-100.440979	31.243626
  86	8.6000e-002	-101.577759	29.994399
  87	8.7000e-002	-102.752686	28.738699
  88	8.8000e-002	-103.919983	27.133474
  89	8.9000e-002	-105.361938	25.644758
  90	9.0000e-002	-106.163025	24.084842
  91	9.1000e-002	-107.490540	22.401945
  92	9.2000e-002	-108.726501	20.777302
  93	9.3000e-002	-109.962463	18.977897
  94	9.4000e-002	-111.129761	17.230274
  95	9.5000e-002	-112.319946	15.404978
  96	9.6000e-002	-113.319397	13.456701
  97	9.7000e-002	-114.562988	11.702605
  98	9.8000e-002	-116.012573	9.741383
  99	9.9000e-002	-117.218018	7.890197
 100	1.0000e-001	-118.141174	6.006647
 101	1.0100e-001	-119.461060	3.786518
 102	1.0200e-001	-120.681763	1.689369
 103	1.0300e-001	-121.856689	-0.278325
 104	1.0400e-001	-123.046875	-2.517872
 105	1.0500e-001	-124.282837	-4.530876
 106	1.0600e-001	-125.335693	-6.705696
 107	1.0700e-001	-126.510620	-8.848153
 108	1.0800e-001	-127.761841	-10.984138
 109	1.0900e-001	-128.929138	-13.152486
 110	1.1000e-001	-130.325317	-15.288470
 111	1.1100e-001	-131.561279	-17.443872
 112	1.1200e-001	-132.736206	-19.651056
 113	1.1300e-001	-133.911133	-21.897076
 114	1.1400e-001	-134.880066	-23.884189
 115	1.1500e-001	-136.268616	-26.162572
 116	1.1600e-001	-137.458801	-28.479791
 117	1.1700e-001	-138.664246	-30.505740
 118	1.1800e-001	-139.846802	-32.712924
 119	1.1900e-001	-141.029358	-34.764764
 120	1.2000e-001	-142.097473	-36.959002
 121	1.2100e-001	-143.356323	-39.075568
 122	1.2200e-001	-144.592285	-41.172717
 123	1.2300e-001	-145.782471	-43.321646
 124	1.2400e-001	-147.140503	-45.444685
 125	1.2500e-001	-148.239136	-47.567724
 126	1.2600e-001	-149.475098	-49.658400
 127	1.2700e-001	-150.619507	-51.651985
 128	1.2800e-001	-151.847839	-53.671462
 129	1.2900e-001	-153.160095	-55.749192
 130	1.3000e-001	-154.190063	-57.600378
 131	1.3100e-001	-155.441284	-59.749308
 132	1.3200e-001	-156.837463	-61.568131
 133	1.3300e-001	-157.875061	-63.496990
 134	1.3400e-001	-159.080505	-65.380539
 135	1.3500e-001	-160.430908	-67.018127
 136	1.3600e-001	-161.460876	-68.578043
 137	1.3700e-001	-162.811279	-69.814325
 138	1.3800e-001	-164.039612	-70.772282
 139	1.3900e-001	-165.229797	-71.160643
 140	1.4000e-001	-166.618347	-71.290096
 141	1.4100e-001	-167.755127	-71.432495
 142	1.4200e-001	-168.945313	-71.600785
 143	1.4300e-001	-170.135498	-71.607257
 144	1.4400e-001	-171.318054	-71.646094
 145	1.4500e-001	-172.531128	-71.620203
 146	1.4600e-001	-173.660278	-71.697875
 147	1.4700e-001	-175.010681	-71.639621
 148	1.4800e-001	-176.147461	-71.529585
 149	1.4900e-001	-177.490234	-71.626676
 150	1.5000e-001	-178.527832	-71.652566
 151	1.5100e-001	-179.763794	-71.691402
 152	1.5200e-001	-180.923462	-71.782020
 153	1.5300e-001	-182.067871	-71.691402
 154	1.5400e-001	-183.456421	-71.814383
 155	1.5500e-001	-184.593201	-71.775547
 156	1.5600e-001	-185.760498	-71.827329
 157	1.5700e-001	-186.920166	-71.833801
 158	1.5800e-001	-188.171387	-71.782020
 159	1.5900e-001	-189.353943	-71.827329
 160	1.6000e-001	-190.612793	-71.820856
 161	1.6100e-001	-191.802979	-71.963255
 162	1.6200e-001	-193.084717	-71.859692
 163	1.6300e-001	-194.122314	-71.982673
 164	1.6400e-001	-195.228577	-71.969728
 165	1.6500e-001	-196.586609	-72.015036
 166	1.6600e-001	-197.723389	-71.924419
 167	1.6700e-001	-198.890686	-71.995618
 168	1.6800e-001	-200.263977	-72.053872
 169	1.6900e-001	-201.400757	-71.911473
 170	1.7000e-001	-202.606201	-71.950310
 171	1.7100e-001	-203.697205	-72.144490
 172	1.7200e-001	-204.948425	-72.112127
 173	1.7300e-001	-206.085205	-72.150963
 174	1.7400e-001	-207.313538	-72.125072
 175	1.7500e-001	-208.602905	-72.079763
 176	1.7600e-001	-209.693909	-72.183326
 177	1.7700e-001	-210.983276	-72.150963
 178	1.7800e-001	-212.104797	-72.183326
 179	1.7900e-001	-213.317871	-72.131545
 180	1.8000e-001	-214.630127	-72.170381
 181	1.8100e-001	-215.858459	-72.312780
 182	1.8200e-001	-217.018127	-72.248053
 183	1.8300e-001	-218.132019	-72.319252
 184	1.8400e-001	-219.429016	-72.260998
 185	1.8500e-001	-220.382690	-72.299834
 186	1.8600e-001	-221.702576	-72.332198
 187	1.8700e-001	-223.052979	-72.403397
 188	1.8800e-001	-224.105835	-72.248053
 189	1.8900e-001	-225.395203	-72.338670
 190	1.9000e-001	-226.470947	-72.209217
 191	1.9100e-001	-227.798462	-72.442233
 192	1.9200e-001	-228.904724	-72.396924
 193	1.9300e-001	-230.171204	-72.332198
 194	1.9400e-001	-231.422424	-72.448706
 195	1.9500e-001	-232.482910	-72.500487
 196	1.9600e-001	-233.657837	-72.435760
 197	1.9700e-001	-235.008240	-72.539323
 198	1.9800e-001	-235.984802	-72.494015
 199	1.9900e-001	-237.213135	-72.539323
 200	2.0000e-001	-238.540649	-72.519905
 201	2.0100e-001	-239.746094	-72.461651
 202	2.0200e-001	-241.027832	-72.552269
 203	2.0300e-001	-242.164612	-72.688195
 204	2.0400e-001	-243.202209	-72.584632
 205	2.0500e-001	-244.567871	-72.701140
 206	2.0600e-001	-245.666504	-72.681722
 207	2.0700e-001	-246.849060	-72.681722
 208	2.0800e-001	-248.092651	-72.739976
 209	2.0900e-001	-249.366760	-72.655832
 210	2.1000e-001	-250.488281	-72.739976
 211	2.1100e-001	-251.663208	-72.772340
 212	2.1200e-001	-252.952576	-72.694668
 213	2.1300e-001	-254.211426	-72.785285
 214	2.1400e-001	-255.424500	-72.811176
 215	2.1500e-001	-256.515503	-72.843539
 216	2.1600e-001	-257.835388	-72.888848
 217	2.1700e-001	-259.254456	-72.927684
 218	2.1800e-001	-260.055542	-72.960048
 219	2.1900e-001	-261.276245	-73.031247
 220	2.2000e-001	-262.702942	-72.927684
 221	2.2100e-001	-263.778687	-72.998884
 222	2.2200e-001	-264.968872	-73.141283
 223	2.2300e-001	-266.159058	-73.063610
 224	2.2400e-001	-267.318726	-73.121865
 225	2.2500e-001	-268.608093	-73.160701
 226	2.2600e-001	-269.752502	-73.083028
 227	2.2700e-001	-270.935059	-73.180119
 228	2.2800e-001	-272.193909	-73.134810
 229	2.2900e-001	-273.353577	-73.212482
 230	2.3000e-001	-274.604797	-73.270736
 231	2.3100e-001	-275.749207	-73.316045
 232	2.3200e-001	-277.000427	-73.387244
 233	2.3300e-001	-278.213501	-73.335463
 234	2.3400e-001	-279.251099	-73.568479
 235	2.3500e-001	-280.563354	-73.445499
 236	2.3600e-001	-281.806946	-73.510225
 237	2.3700e-001	-283.081055	-73.536116
 238	2.3800e-001	-284.194946	-73.574952
 239	2.3900e-001	-285.385132	-73.620261
 240	2.4000e-001	-286.415100	-73.672042
 241	2.4100e-001	-287.719727	-73.646152
 242	2.4200e-001	-289.024353	-73.691460
 243	2.4300e-001	-290.092468	-73.795023
 244	2.4400e-001	-291.458130	-73.769133
 245	2.4500e-001	-292.625427	-73.820914
 246	2.4600e-001	-293.869019	-73.872695
 247	2.4700e-001	-295.043945	-73.859750
 248	2.4800e-001	-296.264648	-73.918004
 249	2.4900e-001	-297.683716	-73.872695
 250	2.5000e-001	-298.591614	-74.047458
 251	2.5100e-001	-299.903870	-74.047458
 252	2.5200e-001	-298.896790	-74.138075
 253	2.5300e-001	-297.645569	-74.163966
 254	2.5400e-001	-296.386719	-74.189857
 255	2.5500e-001	-295.265198	-74.040985
 256	2.5600e-001	-294.151306	-74.131603
 257	2.5700e-001	-292.785645	-74.222220
 258	2.5800e-001	-291.671753	-74.228693
 259	2.5900e-001	-290.443420	-74.286947
 260	2.6000e-001	-289.314270	-74.351674
 261	2.6100e-001	-288.139343	-74.235166
 262	2.6200e-001	-286.811829	-74.209275
 263	2.6300e-001	-285.675049	-74.332256
 264	2.6400e-001	-284.561157	-74.319310
 265	2.6500e-001	-283.287048	-74.299892
 266	2.6600e-001	-281.921387	-74.325783
 267	2.6700e-001	-280.967712	-74.319310
 268	2.6800e-001	-279.579163	-74.274002
 269	2.6900e-001	-278.625488	-74.267529
 270	2.7000e-001	-277.397156	-74.228693
 271	2.7100e-001	-276.062012	-74.371092
 272	2.7200e-001	-274.803162	-74.416401
 273	2.7300e-001	-273.712158	-74.306365
 274	2.7400e-001	-272.415161	-74.332256
 275	2.7500e-001	-271.141052	-74.461709
 276	2.7600e-001	-270.103455	-74.461709
 277	2.7700e-001	-268.997192	-74.435819
 278	2.7800e-001	-267.639160	-74.448764
 279	2.7900e-001	-266.571045	-74.468182
 280	2.8000e-001	-265.243530	-74.384037
 281	2.8100e-001	-264.175415	-74.403455
 282	2.8200e-001	-263.015747	-74.487600
 283	2.8300e-001	-261.695862	-74.403455
 284	2.8400e-001	-260.475159	-74.396983
 285	2.8500e-001	-259.170532	-74.494073
 286	2.8600e-001	-258.201599	-74.338728
 287	2.8700e-001	-256.866455	-74.416401
 288	2.8800e-001	-255.752563	-74.390510
 289	2.8900e-001	-254.478455	-74.364619
 290	2.9000e-001	-253.387451	-74.474655
 291	2.9100e-001	-251.861572	-74.364619
 292	2.9200e-001	-250.816345	-74.448764
 293	2.9300e-001	-249.687195	-74.565272
 294	2.9400e-001	-248.428345	-74.384037
 295	2.9500e-001	-247.222900	-74.409928
 296	2.9600e-001	-246.040344	-74.429346
 297	2.9700e-001	-244.918823	-74.442291
 298	2.9800e-001	-243.560791	-74.403455
 299	2.9900e-001	-242.530823	-74.409928
 300	3.0000e-001	-241.455078	-74.519963
 301	3.0100e-001	-240.051270	-74.371092
 302	3.0200e-001	-238.693237	-74.494073
 303	3.0300e-001	-237.640381	-74.519963
 304	3.0400e-001	-236.465454	-74.345201
 305	3.0500e-001	-235.198975	-74.435819
 306	3.0600e-001	-234.161377	-74.448764
 307	3.0700e-001	-232.765198	-74.429346
 308	3.0800e-001	-231.620789	-74.390510
 309	3.0900e-001	-230.361938	-74.390510
 310	3.1000e-001	-229.194641	-74.396983
 311	3.1100e-001	-227.905273	-74.377564
 312	3.1200e-001	-226.821899	-74.299892
 313	3.1300e-001	-225.494385	-74.468182
 314	3.1400e-001	-224.395752	-74.558799
 315	3.1500e-001	-223.373413	-74.416401
 316	3.1600e-001	-222.053528	-74.364619
 317	3.1700e-001	-220.703125	-74.299892
 318	3.1800e-001	-219.657898	-74.261056
 319	3.1900e-001	-218.383789	-74.416401
 320	3.2000e-001	-217.178345	-74.403455
 321	3.2100e-001	-215.942383	-74.170439
 322	3.2200e-001	-214.836121	-74.254584
 323	3.2300e-001	-213.577271	-74.416401
 324	3.2400e-001	-212.280273	-74.429346
 325	3.2500e-001	-211.189270	-74.325783
 326	3.2600e-001	-210.098267	-74.312838
 327	3.2700e-001	-208.755493	-74.254584
 328	3.2800e-001	-207.618713	-74.215747
 329	3.2900e-001	-206.329346	-74.228693
 330	3.3000e-001	-205.291748	-74.028040
 331	3.3100e-001	-204.040527	-74.202802
 332	3.3200e-001	-202.743530	-74.235166
 333	3.3300e-001	-201.614380	-74.319310
 334	3.3400e-001	-200.386047	-74.299892
 335	3.3500e-001	-199.180603	-74.215747
 336	3.3600e-001	-198.005676	-74.306365
 337	3.3700e-001	-196.754456	-74.189857
 338	3.3800e-001	-195.663452	-74.209275
 339	3.3900e-001	-194.427490	-74.163966
 340	3.4000e-001	-193.336487	-74.034512
 341	3.4100e-001	-192.016602	-74.176911
 342	3.4200e-001	-190.841675	-74.138075
 343	3.4300e-001	-189.674377	-74.125130
 344	3.4400e-001	-188.423157	-74.176911
 345	3.4500e-001	-187.385559	-74.125130
 346	3.4600e-001	-185.943604	-74.092767
 347	3.4700e-001	-184.768677	-74.086294
 348	3.4800e-001	-183.647156	-74.112185
 349	3.4900e-001	-182.533264	-74.073349
 350	3.5000e-001	-181.213379	-74.021567
 351	3.5100e-001	-180.061340	-73.995676
 352	3.5200e-001	-178.794861	-74.060403
 353	3.5300e-001	-177.650452	-74.086294
 354	3.5400e-001	-176.338196	-74.092767
 355	3.5500e-001	-175.079346	-74.008622
 356	3.5600e-001	-174.072266	-74.060403
 357	3.5700e-001	-172.752380	-74.008622
 358	3.5800e-001	-171.768188	-73.930950
 359	3.5900e-001	-170.486450	-73.930950
 360	3.6000e-001	-169.197083	-73.989204
 361	3.6100e-001	-168.029785	-73.963313
 362	3.6200e-001	-166.854858	-73.866223
 363	3.6300e-001	-165.496826	-73.898586
 364	3.6400e-001	-164.260864	-73.943895
 365	3.6500e-001	-163.269043	-73.898586
 366	3.6600e-001	-161.949158	-73.976258
 367	3.6700e-001	-160.911560	-73.892113
 368	3.6800e-001	-159.591675	-73.717351
 369	3.6900e-001	-158.485413	-73.892113
 370	3.7000e-001	-157.279968	-73.769133
 371	3.7100e-001	-155.998230	-73.846805
 372	3.7200e-001	-154.823303	-73.956840
 373	3.7300e-001	-153.625488	-73.956840
 374	3.7400e-001	-152.404785	-73.866223
 375	3.7500e-001	-151.214600	-73.905059
 376	3.7600e-001	-150.047302	-73.801496
 377	3.7700e-001	-148.742676	-73.833859
 378	3.7800e-001	-147.705078	-73.840332
 379	3.7900e-001	-146.423340	-73.659097
 380	3.8000e-001	-145.202637	-73.723824
 381	3.8100e-001	-144.020081	-73.678515
 382	3.8200e-001	-142.784119	-73.749715
 383	3.8300e-001	-141.586304	-73.756187
 384	3.8400e-001	-140.213013	-73.827387
 385	3.8500e-001	-139.175415	-73.846805
 386	3.8600e-001	-138.053894	-73.795023
 387	3.8700e-001	-136.749268	-73.704406
 388	3.8800e-001	-135.772705	-73.704406
 389	3.8900e-001	-134.437561	-73.607316
 390	3.9000e-001	-133.148193	-73.659097
 391	3.9100e-001	-131.935120	-73.620261
 392	3.9200e-001	-130.836487	-73.542589
 393	3.9300e-001	-129.638672	-73.497280
 394	3.9400e-001	-128.471375	-73.639679
 395	3.9500e-001	-127.090454	-73.516698
 396	3.9600e-001	-126.060486	-73.600843
 397	3.9700e-001	-124.885559	-73.458444
 398	3.9800e-001	-123.603821	-73.445499
 399	3.9900e-001	-122.406006	-73.574952
 400	4.0000e-001	-121.322632	-73.471389
 401	4.0100e-001	-120.040894	-73.503753
 402	4.0200e-001	-118.843079	-73.490807
 403	4.0300e-001	-117.736816	-73.439026
 404	4.0400e-001	-116.477966	-73.581425
 405	4.0500e-001	-115.394592	-73.568479
 406	4.0600e-001	-114.013672	-73.510225
 407	4.0700e-001	-112.930298	-73.464917
 408	4.0800e-001	-111.579895	-73.348408
 409	4.0900e-001	-110.466003	-73.354881
 410	4.1000e-001	-109.138489	-73.516698
 411	4.1100e-001	-107.864380	-73.400190
 412	4.1200e-001	-106.948853	-73.406662
 413	4.1300e-001	-105.697632	-73.484335
 414	4.1400e-001	-104.438782	-73.380772
 415	4.1500e-001	-103.263855	-73.445499
 416	4.1600e-001	-102.172852	-73.393717
 417	4.1700e-001	-100.898743	-73.484335
 418	4.1800e-001	-99.548340	-73.309572
 419	4.1900e-001	-98.548889	-73.277209
 420	4.2000e-001	-97.244263	-73.354881
 421	4.2100e-001	-96.092224	-73.374299
 422	4.2200e-001	-94.879150	-73.212482
 423	4.2300e-001	-93.536377	-73.316045
 424	4.2400e-001	-92.445374	-73.335463
 425	4.2500e-001	-91.423035	-73.193064
 426	4.2600e-001	-90.042114	-73.251318
 427	4.2700e-001	-88.851929	-73.283682
 428	4.2800e-001	-87.684631	-73.316045
 429	4.2900e-001	-86.326599	-73.147755
 430	4.3000e-001	-85.250854	-73.070083
 431	4.3100e-001	-83.984375	-73.303100
 432	4.3200e-001	-82.786560	-73.244845
 433	4.3300e-001	-81.619263	-73.173646
 434	4.3400e-001	-80.345154	-73.264264
 435	4.3500e-001	-79.231262	-73.173646
 436	4.3600e-001	-78.079224	-73.206009
 437	4.3700e-001	-76.919556	-73.277209
 438	4.3800e-001	-75.744629	-73.011829
 439	4.3900e-001	-74.447632	-73.212482
 440	4.4000e-001	-73.219299	-73.044192
 441	4.4100e-001	-72.036743	-73.011829
 442	4.4200e-001	-70.831299	-73.102447
 443	4.4300e-001	-69.580078	-73.089501
 444	4.4400e-001	-68.450928	-73.076556
 445	4.4500e-001	-67.207336	-73.089501
 446	4.4600e-001	-66.131592	-73.063610
 447	4.4700e-001	-64.842224	-72.972993
 448	4.4800e-001	-63.697815	-73.024774
 449	4.4900e-001	-62.538147	-72.934157
 450	4.5000e-001	-61.286926	-73.018302
 451	4.5100e-001	-60.050964	-73.005356
 452	4.5200e-001	-58.654785	-72.875903
 453	4.5300e-001	-57.594299	-72.856485
 454	4.5400e-001	-56.358337	-72.901793
 455	4.5500e-001	-55.183411	-72.908266
 456	4.5600e-001	-54.016113	-72.934157
 457	4.5700e-001	-52.841187	-72.940630
 458	4.5800e-001	-51.521301	-72.817649
 459	4.5900e-001	-50.498962	-72.862957
 460	4.6000e-001	-49.301147	-72.901793
 461	4.6100e-001	-48.126221	-72.817649
 462	4.6200e-001	-46.714783	-72.888848
 463	4.6300e-001	-45.684814	-72.824121
 464	4.6400e-001	-44.258118	-72.850012
 465	4.6500e-001	-43.296814	-72.804703
 466	4.6600e-001	-42.129517	-72.850012
 467	4.6700e-001	-40.893555	-72.733504
