»»»»»»»»»»»»»»»»»»»»»»»»»»»»»»»»»»»» Hysteresis ««««««««««««««««««««««««««««««««««««
»»»  Executed Version:	5.16.2
»»»  Vision Version:	5.16.10 (R)
»»»  Vision Compiled:	4/26/18
»»»  Driver Version:	5.16.6
»»»  Windows Version:	Windows 8
»»»  Processor Information:	x86 (AMD or Intel) - 8 Processors
»»»  Tester Name:	PPM21016-863
»»»  Tester S/N:	PPM21016-863
»»»  Internal Amp Type:	 RTI ML200V    
»»»  Internal Amp S/N:	 iAB2-0000     
»»»  Execution Count:	1
»»»»»»»»»»»»»»»»»»»»»»»»»»»»»»»»»»»»»»»»»»««««««««««««««««««««««««««««««««««««««««««

Stored:	6/5/2018 - 7:4:7
Configured:	06/05/18 05:57:41 AM
Executed:	06/05/18 07:03:44 AM

»»»»»»»»»»»»»»»»»»»»»»»»»»»»»»»»»»» Sample Info ««««««««««««««««««««««««««««««««««««
Sample Name:	Internal Reference Cap.
Lot Name:	N/A
Wafer Name:	N/A
Die Row/Column:	0/0
Capacitor Number:	0
Sample Area (cm2):	6.20e-005
Sample Thickness (µm):	1.00e-001

Mux Loop Adjustment:	Disabled

Amplifier:	Internal

»»»»»»»»»»»»»»»»»»»»»»»»»»»»»»»»»»» Tester Info «««««««««««««««««««««««««««««««««««
Tester Name:	PPM21016-863
Tester Serial Number:	PPM21016-863
Return Signal Amp. Level:	1.79 [Index: 2]

»»»»»»»»»»»»»»»»»»»»»»»»»»»»»»»» Hysteresis Info ««««««««««««««««««««««««««««««««««
Task Name:	Hyst-1
Volts:	3.00
Field:	300.00 (kV/cm)
Hysteresis Period (ms):	4.00e+000
Preset:	Enabled
Preset Delay (ms):	1.00e+003
Profile:	Double Bipolar

»»»»»»»»»»»»»»»»»»»»»»»»»»»»»»»»»»»»»» Data «««««««««««««««««««««««««««««««««««««««
Points:	2001

Valid Data

Point	Time (ms)	Field (kV/cm)	Measured Polarization
   1	2.0000e-003	-20.217896	-11.319858
   2	4.0000e-003	-19.218445	-11.251325
   3	6.0000e-003	-17.425537	-11.155380
   4	8.0000e-003	-16.731262	-11.021741
   5	1.0000e-002	-15.563965	-10.897698
   6	1.2000e-002	-14.442444	-10.719513
   7	1.4000e-002	-12.992859	-10.483761
   8	1.6000e-002	-12.107849	-10.221967
   9	1.8000e-002	-10.917664	-9.932760
  10	2.0000e-002	-9.376526	-9.616825
  11	2.2000e-002	-8.476257	-9.230302
  12	2.4000e-002	-6.797791	-8.816365
  13	2.6000e-002	-5.950928	-8.427786
  14	2.8000e-002	-4.707336	-7.941205
  15	3.0000e-002	-3.242493	-7.442288
  16	3.2000e-002	-2.456665	-6.948854
  17	3.4000e-002	-1.106262	-6.372496
  18	3.6000e-002	-0.297546	-5.803676
  19	3.8000e-002	1.342773	-5.238968
  20	4.0000e-002	2.235413	-4.601616
  21	4.2000e-002	3.639221	-3.960837
  22	4.4000e-002	4.798889	-3.284421
  23	4.6000e-002	6.187439	-2.580592
  24	4.8000e-002	7.240295	-1.866483
  25	5.0000e-002	8.522034	-1.142780
  26	5.2000e-002	9.681702	-0.386181
  27	5.4000e-002	10.910034	0.447175
  28	5.6000e-002	12.115479	1.254488
  29	5.8000e-002	13.244629	2.104291
  30	6.0000e-002	14.564514	2.949982
  31	6.2000e-002	15.762329	3.847758
  32	6.4000e-002	16.921997	4.756499
  33	6.6000e-002	18.127441	5.636457
  34	6.8000e-002	19.256592	6.582891
  35	7.0000e-002	20.660400	7.545772
  36	7.2000e-002	21.484375	8.522361
  37	7.4000e-002	23.002625	9.507173
  38	7.6000e-002	24.291992	10.502950
  39	7.8000e-002	25.543213	11.540533
  40	8.0000e-002	26.512146	12.613066
  41	8.2000e-002	27.793884	13.643795
  42	8.4000e-002	28.938293	14.689602
  43	8.6000e-002	30.410767	15.756653
  44	8.8000e-002	31.463623	16.833299
  45	9.0000e-002	32.249451	17.898294
  46	9.2000e-002	33.676147	18.950953
  47	9.4000e-002	35.171509	19.976885
  48	9.6000e-002	36.094666	21.079573
  49	9.8000e-002	37.521362	22.093169
  50	1.0000e-001	38.841248	23.066331
  51	1.0200e-001	39.695740	24.007967
  52	1.0400e-001	41.191101	24.935898
  53	1.0600e-001	41.999817	25.808316
  54	1.0800e-001	43.258667	26.597811
  55	1.1000e-001	44.448853	27.319458
  56	1.1200e-001	45.974731	27.973944
  57	1.1400e-001	46.806335	28.545505
  58	1.1600e-001	48.156738	29.049904
  59	1.1800e-001	49.240112	29.515240
  60	1.2000e-001	50.285339	29.907246
  61	1.2200e-001	51.879883	30.281434
  62	1.2400e-001	52.848816	30.587774
  63	1.2600e-001	54.054260	30.848197
  64	1.2800e-001	55.389404	31.122327
  65	1.3000e-001	56.564331	31.345058
  66	1.3200e-001	57.678223	31.573957
  67	1.3400e-001	58.631897	31.782981
  68	1.3600e-001	60.256958	31.940606
  69	1.3800e-001	61.424255	32.119476
  70	1.4000e-001	62.644958	32.277100
  71	1.4200e-001	63.743591	32.431984
  72	1.4400e-001	65.132141	32.582070
  73	1.4600e-001	66.215515	32.711596
  74	1.4800e-001	67.398071	32.826046
  75	1.5000e-001	68.138123	32.952146
  76	1.5200e-001	69.869995	33.046035
  77	1.5400e-001	70.846558	33.178988
  78	1.5600e-001	72.135925	33.266710
  79	1.5800e-001	73.219299	33.346893
  80	1.6000e-001	74.699402	33.455860
  81	1.6200e-001	75.691223	33.568938
  82	1.6400e-001	77.102661	33.620338
  83	1.6600e-001	77.995300	33.711486
  84	1.6800e-001	78.994751	33.781389
  85	1.7000e-001	80.825806	33.875964
  86	1.7200e-001	81.832886	33.928049
  87	1.7400e-001	83.068848	34.027421
  88	1.7600e-001	84.236145	34.091841
  89	1.7800e-001	85.418701	34.150094
  90	1.8000e-001	86.456299	34.233704
  91	1.8200e-001	87.577820	34.276879
  92	1.8400e-001	88.912964	34.341300
  93	1.8600e-001	90.232849	34.402979
  94	1.8800e-001	91.598511	34.458490
  95	1.9000e-001	92.552185	34.520855
  96	1.9200e-001	93.795776	34.555806
  97	1.9400e-001	95.062256	34.621598
  98	1.9600e-001	96.244812	34.681906
  99	1.9800e-001	97.640991	34.755921
 100	2.0000e-001	98.686218	34.758663
 101	2.0200e-001	99.777222	34.821027
 102	2.0400e-001	100.883484	34.861461
 103	2.0600e-001	102.500916	34.940959
 104	2.0800e-001	103.149414	34.972484
 105	2.1000e-001	104.515076	35.032107
 106	2.1200e-001	105.850220	35.060206
 107	2.1400e-001	106.864929	35.105437
 108	2.1600e-001	108.009338	35.147242
 109	2.1800e-001	109.405518	35.197271
 110	2.2000e-001	110.511780	35.223313
 111	2.2200e-001	111.564636	35.263747
 112	2.2400e-001	113.052368	35.305552
 113	2.2600e-001	114.196777	35.352840
 114	2.2800e-001	115.081787	35.372029
 115	2.3000e-001	116.630554	35.424799
 116	2.3200e-001	118.057251	35.461806
 117	2.3400e-001	118.904114	35.505667
 118	2.3600e-001	120.346069	35.538563
 119	2.3800e-001	121.391296	35.577626
 120	2.4000e-001	122.489929	35.590647
 121	2.4200e-001	123.710632	35.645473
 122	2.4400e-001	124.992371	35.689334
 123	2.4600e-001	125.923157	35.698929
 124	2.4800e-001	127.220154	35.729768
 125	2.5000e-001	128.562927	35.787336
 126	2.5200e-001	129.776001	35.833938
 127	2.5400e-001	131.103516	35.853812
 128	2.5600e-001	132.278442	35.856553
 129	2.5800e-001	133.209229	35.933995
 130	2.6000e-001	134.361267	35.953184
 131	2.6200e-001	135.734558	35.986080
 132	2.6400e-001	136.772156	35.996360
 133	2.6600e-001	138.107300	36.045703
 134	2.6800e-001	139.335632	36.081340
 135	2.7000e-001	140.594482	36.110124
 136	2.7200e-001	141.761780	36.144390
 137	2.7400e-001	143.028259	36.132054
 138	2.7600e-001	144.126892	36.193733
 139	2.7800e-001	145.332336	36.236224
 140	2.8000e-001	146.415710	36.261581
 141	2.8200e-001	147.659302	36.298588
 142	2.8400e-001	149.002075	36.346561
 143	2.8600e-001	150.016785	36.332854
 144	2.8800e-001	151.100159	36.398646
 145	2.9000e-001	152.458191	36.408926
 146	2.9200e-001	153.633118	36.441136
 147	2.9400e-001	154.808044	36.463066
 148	2.9600e-001	156.333923	36.506242
 149	2.9800e-001	157.264709	36.533655
 150	3.0000e-001	158.401489	36.564494
 151	3.0200e-001	159.851074	36.591222
 152	3.0400e-001	161.048889	36.611782
 153	3.0600e-001	162.178040	36.634398
 154	3.0800e-001	163.406372	36.678258
 155	3.1000e-001	164.474487	36.668664
 156	3.1200e-001	165.847778	36.723490
 157	3.1400e-001	166.984558	36.750217
 158	3.1600e-001	167.816162	36.786540
 159	3.1800e-001	169.593811	36.802302
 160	3.2000e-001	170.715332	36.843422
 161	3.2200e-001	171.585083	36.869464
 162	3.2400e-001	173.011780	36.897562
 163	3.2600e-001	174.430847	36.927717
 164	3.2800e-001	175.056458	36.945535
 165	3.3000e-001	176.818848	36.992137
 166	3.3200e-001	177.665710	37.006529
 167	3.3400e-001	178.993225	37.025718
 168	3.3600e-001	180.061340	37.048334
 169	3.3800e-001	181.350708	37.093565
 170	3.4000e-001	182.456970	37.090824
 171	3.4200e-001	183.868408	37.153874
 172	3.4400e-001	185.050964	37.157986
 173	3.4600e-001	185.935974	37.172378
 174	3.4800e-001	187.431335	37.225833
 175	3.5000e-001	188.652039	37.250505
 176	3.5200e-001	189.376831	37.265582
 177	3.5400e-001	191.093445	37.299848
 178	3.5600e-001	192.314148	37.315611
 179	3.5800e-001	193.237305	37.340282
 180	3.6000e-001	194.526672	37.364269
 181	3.6200e-001	195.594788	37.388255
 182	3.6400e-001	197.074890	37.411556
 183	3.6600e-001	198.074341	37.434857
 184	3.6800e-001	199.249268	37.473235
 185	3.7000e-001	200.302124	37.512984
 186	3.7200e-001	201.721191	37.513670
 187	3.7400e-001	203.216553	37.546565
 188	3.7600e-001	204.620361	37.573978
 189	3.7800e-001	205.513000	37.600706
 190	3.8000e-001	206.535339	37.605503
 191	3.8200e-001	207.710266	37.628804
 192	3.8400e-001	208.839417	37.661015
 193	3.8600e-001	210.227966	37.662385
 194	3.8800e-001	211.341858	37.708302
 195	3.9000e-001	212.455750	37.741198
 196	3.9200e-001	213.607788	37.758331
 197	3.9400e-001	214.683533	37.784373
 198	3.9600e-001	216.362000	37.804248
 199	3.9800e-001	217.292786	37.852906
 200	4.0000e-001	218.765259	37.843311
 201	4.0200e-001	219.421387	37.865927
 202	4.0400e-001	220.756531	37.856332
 203	4.0600e-001	222.190857	37.927606
 204	4.0800e-001	223.159790	37.946795
 205	4.1000e-001	224.380493	37.952278
 206	4.1200e-001	225.944519	37.985859
 207	4.1400e-001	226.737976	38.024237
 208	4.1600e-001	228.080750	38.037943
 209	4.1800e-001	229.583740	38.067412
 210	4.2000e-001	230.552673	38.081119
 211	4.2200e-001	231.613159	38.103049
 212	4.2400e-001	233.367920	38.134574
 213	4.2600e-001	234.115601	38.171582
 214	4.2800e-001	235.420227	38.179120
 215	4.3000e-001	236.610413	38.211331
 216	4.3200e-001	237.876892	38.233946
 217	4.3400e-001	238.792419	38.249709
 218	4.3600e-001	240.135193	38.293570
 219	4.3800e-001	241.477966	38.334004
 220	4.4000e-001	242.698669	38.322353
 221	4.4200e-001	243.812561	38.362102
 222	4.4400e-001	244.766235	38.349081
 223	4.4600e-001	246.299744	38.392942
 224	4.4800e-001	247.306824	38.423781
 225	4.5000e-001	248.252869	38.441600
 226	4.5200e-001	249.824524	38.446397
 227	4.5400e-001	251.091003	38.502594
 228	4.5600e-001	252.273560	38.511503
 229	4.5800e-001	253.402710	38.555364
 230	4.6000e-001	254.623413	38.576609
 231	4.6200e-001	255.821228	38.595113
 232	4.6400e-001	256.942749	38.602651
 233	4.6600e-001	257.987976	38.614987
 234	4.6800e-001	259.651184	38.637603
 235	4.7000e-001	260.665894	38.673925
 236	4.7200e-001	261.619568	38.696541
 237	4.7400e-001	263.107300	38.713674
 238	4.7600e-001	264.091492	38.722583
 239	4.7800e-001	265.739441	38.808249
 240	4.8000e-001	266.548157	38.799340
 241	4.8200e-001	267.623901	38.814417
 242	4.8400e-001	268.722534	38.815102
 243	4.8600e-001	270.217896	38.848683
 244	4.8800e-001	271.560669	38.885005
 245	4.9000e-001	272.735596	38.893229
 246	4.9200e-001	273.811340	38.917901
 247	4.9400e-001	274.955750	38.922013
 248	4.9600e-001	276.191711	38.956964
 249	4.9800e-001	277.290344	38.969986
 250	5.0000e-001	278.579712	39.009049
 251	5.0200e-001	279.632568	39.023441
 252	5.0400e-001	278.686523	38.996713
 253	5.0600e-001	277.008057	38.999455
 254	5.0800e-001	276.130676	38.975468
 255	5.1000e-001	274.902344	38.936405
 256	5.1200e-001	273.445129	38.922013
 257	5.1400e-001	272.552490	38.915845
 258	5.1600e-001	271.476746	38.893914
 259	5.1800e-001	269.943237	38.880208
 260	5.2000e-001	268.516541	38.847312
 261	5.2200e-001	267.753601	38.808249
 262	5.2400e-001	266.563416	38.807563
 263	5.2600e-001	265.113831	38.787689
 264	5.2800e-001	264.160156	38.767129
 265	5.3000e-001	262.695313	38.734919
 266	5.3200e-001	261.726379	38.740402
 267	5.3400e-001	260.543823	38.729436
 268	5.3600e-001	259.300232	38.683520
 269	5.3800e-001	257.858276	38.669813
 270	5.4000e-001	257.102966	38.636232
 271	5.4200e-001	255.813599	38.617728
 272	5.4400e-001	254.470825	38.594427
 273	5.4600e-001	253.326416	38.577294
 274	5.4800e-001	252.067566	38.597169
 275	5.5000e-001	250.976563	38.526580
 276	5.5200e-001	249.694824	38.516986
 277	5.5400e-001	248.504639	38.490258
 278	5.5600e-001	247.398376	38.455992
 279	5.5800e-001	245.925903	38.479293
 280	5.6000e-001	244.819641	38.433376
 281	5.6200e-001	243.728638	38.389515
 282	5.6400e-001	242.271423	38.401166
 283	5.6600e-001	241.264343	38.363473
 284	5.6800e-001	240.196228	38.352508
 285	5.7000e-001	239.158630	38.334689
 286	5.7200e-001	237.693787	38.320983
 287	5.7400e-001	236.679077	38.286031
 288	5.7600e-001	235.351563	38.287402
 289	5.7800e-001	233.856201	38.240800
 290	5.8000e-001	233.421326	38.261359
 291	5.8200e-001	231.712341	38.199680
 292	5.8400e-001	230.323792	38.174323
 293	5.8600e-001	229.591370	38.177750
 294	5.8800e-001	227.989197	38.140742
 295	5.9000e-001	227.073669	38.121553
 296	5.9200e-001	225.769043	38.107161
 297	5.9400e-001	224.357605	38.068783
 298	5.9600e-001	223.411560	38.053021
 299	5.9800e-001	222.145081	38.032461
 300	6.0000e-001	220.787048	38.003677
 301	6.0200e-001	219.520569	37.980376
 302	6.0400e-001	218.406677	37.940627
 303	6.0600e-001	217.292786	37.941313
 304	6.0800e-001	216.171265	37.917326
 305	6.1000e-001	214.744568	37.891284
 306	6.1200e-001	213.539124	37.880319
 307	6.1400e-001	212.577820	37.848108
 308	6.1600e-001	211.433411	37.813157
 309	6.1800e-001	209.861755	37.816583
 310	6.2000e-001	208.938599	37.781632
 311	6.2200e-001	207.870483	37.772037
 312	6.2400e-001	206.649780	37.737086
 313	6.2600e-001	205.146790	37.725435
 314	6.2800e-001	204.071045	37.686372
 315	6.3000e-001	202.896118	37.671980
 316	6.3200e-001	202.102661	37.650735
 317	6.3400e-001	200.523376	37.624692
 318	6.3600e-001	199.440002	37.617839
 319	6.3800e-001	198.104858	37.580146
 320	6.4000e-001	196.929932	37.553419
 321	6.4200e-001	195.938110	37.542453
 322	6.4400e-001	194.511414	37.503390
 323	6.4600e-001	193.138123	37.503390
 324	6.4800e-001	192.184448	37.482145
 325	6.5000e-001	191.101074	37.451305
 326	6.5200e-001	189.575195	37.425948
 327	6.5400e-001	189.125061	37.403332
 328	6.5600e-001	187.408447	37.393052
 329	6.5800e-001	185.974121	37.349192
 330	6.6000e-001	185.043335	37.292995
 331	6.6200e-001	183.784485	37.299848
 332	6.6400e-001	182.327271	37.309443
 333	6.6600e-001	181.526184	37.264897
 334	6.6800e-001	179.855347	37.239540
 335	6.7000e-001	179.130554	37.188826
 336	6.7200e-001	177.612305	37.181972
 337	6.7400e-001	176.506042	37.180602
 338	6.7600e-001	175.399780	37.142223
 339	6.7800e-001	174.484253	37.099048
 340	6.8000e-001	172.966003	37.103845
 341	6.8200e-001	171.623230	37.052446
 342	6.8400e-001	170.715332	37.045593
 343	6.8600e-001	169.517517	37.051761
 344	6.8800e-001	168.090820	36.997620
 345	6.9000e-001	166.877747	36.968836
 346	6.9200e-001	165.596008	36.938682
 347	6.9400e-001	164.634705	36.922919
 348	6.9600e-001	163.177490	36.905101
 349	6.9800e-001	162.376404	36.865352
 350	7.0000e-001	161.178589	36.805729
 351	7.0200e-001	159.561157	36.816009
 352	7.0400e-001	158.309937	36.800932
 353	7.0600e-001	157.417297	36.783798
 354	7.0800e-001	156.219482	36.740623
 355	7.1000e-001	154.815674	36.700189
 356	7.1200e-001	153.747559	36.710469
 357	7.1400e-001	152.648926	36.661811
 358	7.1600e-001	151.206970	36.645363
 359	7.1800e-001	150.222778	36.611782
 360	7.2000e-001	148.956299	36.609040
 361	7.2200e-001	147.720337	36.565865
 362	7.2400e-001	146.469116	36.563124
 363	7.2600e-001	145.164490	36.514466
 364	7.2800e-001	144.203186	36.504871
 365	7.3000e-001	142.944336	36.475402
 366	7.3200e-001	141.647339	36.429485
 367	7.3400e-001	140.373230	36.430856
 368	7.3600e-001	139.427185	36.397960
 369	7.3800e-001	137.962341	36.417835
 370	7.4000e-001	136.802673	36.342449
 371	7.4200e-001	136.215210	36.313665
 372	7.4400e-001	134.445190	36.288994
 373	7.4600e-001	133.201599	36.252671
 374	7.4800e-001	132.263184	36.228685
 375	7.5000e-001	130.897522	36.210181
 376	7.5200e-001	129.554749	36.184824
 377	7.5400e-001	128.494263	36.157411
 378	7.5600e-001	127.120972	36.140963
 379	7.5800e-001	125.755310	36.092991
 380	7.6000e-001	124.984741	36.077228
 381	7.6200e-001	123.588562	36.056668
 382	7.6400e-001	122.566223	36.011437
 383	7.6600e-001	121.055603	35.930569
 384	7.6800e-001	120.056152	35.956611
 385	7.7000e-001	118.377686	35.925771
 386	7.7200e-001	117.469788	35.903841
 387	7.7400e-001	116.401672	35.872316
 388	7.7600e-001	115.318298	35.843532
 389	7.7800e-001	114.334106	35.820917
 390	7.8000e-001	112.945557	35.789392
 391	7.8200e-001	111.557007	35.771573
 392	7.8400e-001	110.565186	35.744160
 393	7.8600e-001	109.336853	35.709894
 394	7.8800e-001	108.047485	35.694817
 395	7.9000e-001	107.124329	35.657124
 396	7.9200e-001	105.842590	35.620116
 397	7.9400e-001	104.446411	35.594759
 398	7.9600e-001	103.340149	35.561864
 399	7.9800e-001	102.249146	35.521429
 400	8.0000e-001	100.845337	35.509094
 401	8.0200e-001	99.617004	35.471401
 402	8.0400e-001	98.739624	35.454268
 403	8.0600e-001	96.984863	35.414519
 404	8.0800e-001	95.771790	35.380253
 405	8.1000e-001	94.871521	35.341874
 406	8.1200e-001	93.696594	35.316517
 407	8.1400e-001	92.430115	35.303496
 408	8.1600e-001	91.239929	35.277454
 409	8.1800e-001	90.049744	35.216460
 410	8.2000e-001	88.745117	35.208236
 411	8.2200e-001	87.707520	35.197271
 412	8.2400e-001	86.380005	35.128738
 413	8.2600e-001	85.197449	35.101325
 414	8.2800e-001	84.297180	35.076653
 415	8.3000e-001	82.908630	35.038961
 416	8.3200e-001	81.748962	35.045814
 417	8.3400e-001	80.528259	34.968372
 418	8.3600e-001	79.490662	34.947127
 419	8.3800e-001	77.728271	34.872427
 420	8.4000e-001	76.942444	34.872427
 421	8.4200e-001	75.538635	34.843643
 422	8.4400e-001	74.447632	34.798411
 423	8.4600e-001	73.448181	34.763460
 424	8.4800e-001	72.486877	34.736732
 425	8.5000e-001	70.755005	34.682592
 426	8.5200e-001	69.732666	34.653808
 427	8.5400e-001	68.580627	34.612003
 428	8.5600e-001	67.230225	34.595555
 429	8.5800e-001	66.040039	34.552380
 430	8.6000e-001	64.933777	34.534561
 431	8.6200e-001	63.507080	34.500295
 432	8.6400e-001	62.271118	34.442728
 433	8.6600e-001	61.119080	34.409832
 434	8.6800e-001	60.592651	34.350894
 435	8.7000e-001	58.822632	34.333076
 436	8.7200e-001	57.731628	34.305663
 437	8.7400e-001	56.350708	34.270711
 438	8.7600e-001	55.038452	34.202864
 439	8.7800e-001	54.153442	34.161744
 440	8.8000e-001	52.764893	34.126793
 441	8.8200e-001	51.696777	34.074708
 442	8.8400e-001	50.270081	34.029477
 443	8.8600e-001	49.354553	33.988357
 444	8.8800e-001	47.904968	33.964371
 445	8.9000e-001	46.684265	33.880076
 446	8.9200e-001	45.692444	33.860887
 447	8.9400e-001	44.578552	33.821823
 448	8.9600e-001	42.778015	33.751920
 449	8.9800e-001	42.037964	33.726563
 450	9.0000e-001	40.824890	33.668310
 451	9.0200e-001	39.764404	33.629247
 452	9.0400e-001	38.536072	33.568938
 453	9.0600e-001	37.513733	33.507944
 454	9.0800e-001	35.942078	33.455174
 455	9.1000e-001	34.866333	33.399663
 456	9.1200e-001	33.737183	33.352375
 457	9.1400e-001	32.653809	33.284528
 458	9.1600e-001	31.356812	33.213940
 459	9.1800e-001	30.189514	33.152946
 460	9.2000e-001	29.045105	33.090581
 461	9.2200e-001	27.580261	33.052888
 462	9.2400e-001	26.458740	32.945292
 463	9.2600e-001	25.390625	32.884984
 464	9.2800e-001	24.070740	32.825360
 465	9.3000e-001	22.583008	32.733527
 466	9.3200e-001	21.759033	32.662938
 467	9.3400e-001	20.446777	32.578643
 468	9.3600e-001	19.271851	32.477215
 469	9.3800e-001	18.066406	32.401829
 470	9.4000e-001	17.112732	32.312052
 471	9.4200e-001	15.830994	32.207197
 472	9.4400e-001	14.312744	32.096860
 473	9.4600e-001	13.130188	31.998173
 474	9.4800e-001	12.069702	31.883038
 475	9.5000e-001	10.871887	31.756253
 476	9.5200e-001	9.361267	31.632895
 477	9.5400e-001	8.422852	31.495144
 478	9.5600e-001	7.293701	31.325184
 479	9.5800e-001	6.309509	31.179895
 480	9.6000e-001	4.798889	31.008564
 481	9.6200e-001	3.822327	30.824896
 482	9.6400e-001	2.517700	30.619299
 483	9.6600e-001	1.487732	30.421925
 484	9.6800e-001	0.320435	30.213586
 485	9.7000e-001	-1.327515	29.999080
 486	9.7200e-001	-2.105713	29.686571
 487	9.7400e-001	-3.257751	29.407644
 488	9.7600e-001	-4.760742	29.075947
 489	9.7800e-001	-5.737305	28.729172
 490	9.8000e-001	-7.057190	28.356355
 491	9.8200e-001	-8.453369	27.940363
