»»»»»»»»»»»»»»»»»»»»»»»»»»»»»»»»»»»» Hysteresis ««««««««««««««««««««««««««««««««««««
»»»  Executed Version:	5.12.0
»»»  Vision Version:	5.12.5 (R)
»»»  Vision Compiled:	2/24/17
»»»  Driver Version:	5.12.4
»»»  Windows Version:	Windows 7
»»»  Processor Information:	x86 (AMD or Intel) - 2 Processors
»»»  Tester Name:	PMF0910-256
»»»  Tester S/N:	PMF0910-256
»»»  Internal Amp Type:	 RTI 100V      
»»»  Internal Amp S/N:	 iAB1-0000     
»»»  Execution Count:	1
»»»»»»»»»»»»»»»»»»»»»»»»»»»»»»»»»»»»»»»»»»««««««««««««««««««««««««««««««««««««««««««

Stored:	8/4/2017 - 8:49:20
Configured:	08/03/17 01:23:53 PM
Executed:	08/04/17 08:48:24 AM

»»»»»»»»»»»»»»»»»»»»»»»»»»»»»»»»»»» Sample Info ««««««««««««««««««««««««««««««««««««
Sample Name:	63
Lot Name:	
Wafer Name:	
Die Row/Column:	1/1
Capacitor Number:	1
Sample Area (cm2):	4.91e-006
Sample Thickness (µm):	1.00e-001

Mux Loop Adjustment:	Disabled

Amplifier:	Internal

»»»»»»»»»»»»»»»»»»»»»»»»»»»»»»»»»»» Tester Info «««««««««««««««««««««««««««««««««««
Tester Name:	PMF0910-256
Tester Serial Number:	PMF0910-256
Return Signal Amp. Level:	16.67 [Index: 1]

»»»»»»»»»»»»»»»»»»»»»»»»»»»»»»»» Hysteresis Info ««««««««««««««««««««««««««««««««««
Task Name:	Hyst-2
Volts:	3.00
Field:	300.00 (kV/cm)
Hysteresis Period (ms):	2.00e+000
Preset:	Enabled
Preset Delay (ms):	1.00e+003
Profile:	Double Bipolar

»»»»»»»»»»»»»»»»»»»»»»»»»»»»»»»»»»»»»» Data «««««««««««««««««««««««««««««««««««««««
Points:	2001

Valid Data

Point	Time (ms)	Drive Voltage	Measured Polarization
   1	1.0000e-003	-0.0018	-20.720240
   2	2.0000e-003	0.0091	-20.713751
   3	3.0000e-003	0.0234	-20.641450
   4	4.0000e-003	0.0341	-20.591396
   5	5.0000e-003	0.0456	-20.556172
   6	6.0000e-003	0.0585	-20.488506
   7	7.0000e-003	0.0716	-20.522802
   8	8.0000e-003	0.0828	-20.275311
   9	9.0000e-003	0.0925	-20.240087
  10	1.0000e-002	0.1060	-20.181690
  11	1.1000e-002	0.1192	-20.067677
  12	1.2000e-002	0.1308	-19.982399
  13	1.3000e-002	0.1444	-19.880437
  14	1.4000e-002	0.1546	-19.763643
  15	1.5000e-002	0.1675	-19.613479
  16	1.6000e-002	0.1788	-19.481855
  17	1.7000e-002	0.1883	-19.344668
  18	1.8000e-002	0.2048	-19.205628
  19	1.9000e-002	0.2122	-19.012825
  20	2.0000e-002	0.2270	-18.849685
  21	2.1000e-002	0.2390	-18.688398
  22	2.2000e-002	0.2532	-18.497450
  23	2.3000e-002	0.2633	-18.302793
  24	2.4000e-002	0.2754	-18.137799
  25	2.5000e-002	0.2824	-17.928312
  26	2.6000e-002	0.3003	-17.503775
  27	2.7000e-002	0.3113	-17.359174
  28	2.8000e-002	0.3209	-17.227549
  29	2.9000e-002	0.3348	-17.025477
  30	3.0000e-002	0.3458	-16.867898
  31	3.1000e-002	0.3578	-16.692707
  32	3.2000e-002	0.3703	-16.504540
  33	3.3000e-002	0.3816	-16.315445
  34	3.4000e-002	0.3963	-16.092980
  35	3.5000e-002	0.4043	-15.894616
  36	3.6000e-002	0.4205	-15.676787
  37	3.7000e-002	0.4305	-15.430222
  38	3.8000e-002	0.4419	-15.223516
  39	3.9000e-002	0.4544	-15.016809
  40	4.0000e-002	0.4650	-14.814737
  41	4.1000e-002	0.4783	-14.569099
  42	4.2000e-002	0.4881	-14.354978
  43	4.3000e-002	0.5035	-14.128805
  44	4.4000e-002	0.5137	-13.667192
  45	4.5000e-002	0.5283	-13.510540
  46	4.6000e-002	0.5378	-13.364084
  47	4.7000e-002	0.5525	-13.192601
  48	4.8000e-002	0.5639	-12.993310
  49	4.9000e-002	0.5761	-12.788458
  50	5.0000e-002	0.5873	-12.609559
  51	5.1000e-002	0.5969	-12.406560
  52	5.2000e-002	0.6116	-12.164630
  53	5.3000e-002	0.6221	-11.961632
  54	5.4000e-002	0.6342	-11.713213
  55	5.5000e-002	0.6472	-11.474064
  56	5.6000e-002	0.6588	-11.272919
  57	5.7000e-002	0.6718	-11.065286
  58	5.8000e-002	0.6826	-10.866921
  59	5.9000e-002	0.6960	-10.638895
  60	6.0000e-002	0.7053	-10.431262
  61	6.1000e-002	0.7191	-10.217140
  62	6.2000e-002	0.7290	-9.765723
  63	6.3000e-002	0.7413	-9.641513
  64	6.4000e-002	0.7549	-9.471884
  65	6.5000e-002	0.7684	-9.266105
  66	6.6000e-002	0.7781	-9.095549
  67	6.7000e-002	0.7928	-8.871231
  68	6.8000e-002	0.8023	-8.682136
  69	6.9000e-002	0.8121	-8.457818
  70	7.0000e-002	0.8272	-8.242769
  71	7.1000e-002	0.8381	-8.016597
  72	7.2000e-002	0.8515	-7.796913
  73	7.3000e-002	0.8611	-7.577229
  74	7.4000e-002	0.8744	-7.371450
  75	7.5000e-002	0.8878	-7.148986
  76	7.6000e-002	0.8990	-6.933937
  77	7.7000e-002	0.9095	-6.717034
  78	7.8000e-002	0.9227	-6.489008
  79	7.9000e-002	0.9345	-6.261909
  80	8.0000e-002	0.9448	-5.804930
  81	8.1000e-002	0.9583	-5.654766
  82	8.2000e-002	0.9719	-5.472160
  83	8.3000e-002	0.9843	-5.253404
  84	8.4000e-002	0.9945	-5.051332
  85	8.5000e-002	1.0056	-4.822379
  86	8.6000e-002	1.0182	-4.621234
  87	8.7000e-002	1.0281	-4.393208
  88	8.8000e-002	1.0403	-4.142009
  89	8.9000e-002	1.0542	-3.925106
  90	9.0000e-002	1.0683	-3.691518
  91	9.1000e-002	1.0793	-3.427342
  92	9.2000e-002	1.0901	-3.200243
  93	9.3000e-002	1.1028	-2.919382
  94	9.4000e-002	1.1158	-2.692282
  95	9.5000e-002	1.1255	-2.420691
  96	9.6000e-002	1.1386	-2.150952
  97	9.7000e-002	1.1509	-1.913657
  98	9.8000e-002	1.1655	-1.403843
  99	9.9000e-002	1.1760	-1.193429
 100	1.0000e-001	1.1880	-0.967257
 101	1.0100e-001	1.1987	-0.709569
 102	1.0200e-001	1.2107	-0.465785
 103	1.0300e-001	1.2231	-0.198828
 104	1.0400e-001	1.2350	0.068130
 105	1.0500e-001	1.2476	0.339722
 106	1.0600e-001	1.2611	0.661368
 107	1.0700e-001	1.2717	0.964476
 108	1.0800e-001	1.2824	1.274072
 109	1.0900e-001	1.2958	1.653188
 110	1.1000e-001	1.3081	1.990593
 111	1.1100e-001	1.3187	2.340047
 112	1.1200e-001	1.3305	2.693209
 113	1.1300e-001	1.3413	3.088084
 114	1.1400e-001	1.3546	3.506131
 115	1.1500e-001	1.3686	3.871344
 116	1.1600e-001	1.3806	4.541518
 117	1.1700e-001	1.3899	4.917853
 118	1.1800e-001	1.3997	5.358147
 119	1.1900e-001	1.4151	5.805857
 120	1.2000e-001	1.4275	6.321233
 121	1.2100e-001	1.4413	6.863490
 122	1.2200e-001	1.4511	7.409454
 123	1.2300e-001	1.4621	8.061089
 124	1.2400e-001	1.4740	8.676574
 125	1.2500e-001	1.4883	9.368995
 126	1.2600e-001	1.4982	10.103127
 127	1.2700e-001	1.5114	10.887314
 128	1.2800e-001	1.5234	11.708578
 129	1.2900e-001	1.5337	12.540039
 130	1.3000e-001	1.5456	13.448435
 131	1.3100e-001	1.5598	14.430059
 132	1.3200e-001	1.5703	15.431149
 133	1.3300e-001	1.5833	16.505467
 134	1.3400e-001	1.5942	17.877330
 135	1.3500e-001	1.6051	18.965552
 136	1.3600e-001	1.6209	20.166859
 137	1.3700e-001	1.6313	21.371875
 138	1.3800e-001	1.6433	22.610260
 139	1.3900e-001	1.6566	23.885722
 140	1.4000e-001	1.6691	25.160258
 141	1.4100e-001	1.6802	26.450551
 142	1.4200e-001	1.6891	27.707475
 143	1.4300e-001	1.7023	28.957910
 144	1.4400e-001	1.7140	30.149022
 145	1.4500e-001	1.7278	31.261343
 146	1.4600e-001	1.7418	32.335661
 147	1.4700e-001	1.7523	33.301527
 148	1.4800e-001	1.7612	34.163577
 149	1.4900e-001	1.7770	34.949617
 150	1.5000e-001	1.7871	35.671700
 151	1.5100e-001	1.7992	36.316846
 152	1.5200e-001	1.8100	37.084349
 153	1.5300e-001	1.8217	37.509812
 154	1.5400e-001	1.8344	37.922298
 155	1.5500e-001	1.8468	38.303268
 156	1.5600e-001	1.8598	38.611937
 157	1.5700e-001	1.8721	38.947488
 158	1.5800e-001	1.8819	39.189418
 159	1.5900e-001	1.8964	39.415590
 160	1.6000e-001	1.9087	39.646397
 161	1.6100e-001	1.9183	39.854957
 162	1.6200e-001	1.9302	40.035709
 163	1.6300e-001	1.9413	40.212754
 164	1.6400e-001	1.9529	40.362917
 165	1.6500e-001	1.9678	40.509373
 166	1.6600e-001	1.9806	40.619678
 167	1.6700e-001	1.9946	40.760572
 168	1.6800e-001	2.0029	40.893124
 169	1.6900e-001	2.0137	40.979329
 170	1.7000e-001	2.0300	41.147104
 171	1.7100e-001	2.0396	41.227748
 172	1.7200e-001	2.0498	41.313953
 173	1.7300e-001	2.0628	41.380692
 174	1.7400e-001	2.0760	41.453920
 175	1.7500e-001	2.0867	41.518805
 176	1.7600e-001	2.0994	41.553102
 177	1.7700e-001	2.1118	41.617060
 178	1.7800e-001	2.1249	41.685653
 179	1.7900e-001	2.1365	41.779274
 180	1.8000e-001	2.1461	41.823767
 181	1.8100e-001	2.1589	41.876602
 182	1.8200e-001	2.1713	41.945195
 183	1.8300e-001	2.1844	41.996177
 184	1.8400e-001	2.1952	42.034181
 185	1.8500e-001	2.2089	42.103701
 186	1.8600e-001	2.2169	42.169513
 187	1.8700e-001	2.2318	42.189906
 188	1.8800e-001	2.2434	42.252938
 189	1.8900e-001	2.2568	42.286307
 190	1.9000e-001	2.2679	42.342850
 191	1.9100e-001	2.2794	42.373439
 192	1.9200e-001	2.2892	42.412370
 193	1.9300e-001	2.3042	42.444813
 194	1.9400e-001	2.3151	42.473548
 195	1.9500e-001	2.3286	42.526383
 196	1.9600e-001	2.3372	42.550484
 197	1.9700e-001	2.3497	42.581999
 198	1.9800e-001	2.3619	42.665424
 199	1.9900e-001	2.3744	42.702501
 200	2.0000e-001	2.3881	42.717332
 201	2.0100e-001	2.3991	42.765533
 202	2.0200e-001	2.4120	42.789633
 203	2.0300e-001	2.4228	42.810025
 204	2.0400e-001	2.4361	42.859153
 205	2.0500e-001	2.4464	42.895303
 206	2.0600e-001	2.4587	42.924038
 207	2.0700e-001	2.4709	42.947212
 208	2.0800e-001	2.4837	43.016732
 209	2.0900e-001	2.4954	43.030636
 210	2.1000e-001	2.5098	43.045467
 211	2.1100e-001	2.5195	43.098302
 212	2.1200e-001	2.5314	43.090887
 213	2.1300e-001	2.5430	43.148357
 214	2.1400e-001	2.5557	43.183580
 215	2.1500e-001	2.5661	43.207681
 216	2.1600e-001	2.5784	43.268858
 217	2.1700e-001	2.5909	43.274420
 218	2.1800e-001	2.6022	43.305936
 219	2.1900e-001	2.6183	43.321694
 220	2.2000e-001	2.6289	43.362479
 221	2.2100e-001	2.6404	43.381944
 222	2.2200e-001	2.6517	43.419022
 223	2.2300e-001	2.6637	43.440341
 224	2.2400e-001	2.6755	43.480199
 225	2.2500e-001	2.6865	43.493177
 226	2.2600e-001	2.7012	43.557135
 227	2.2700e-001	2.7107	43.569185
 228	2.2800e-001	2.7244	43.613678
 229	2.2900e-001	2.7345	43.619240
 230	2.3000e-001	2.7478	43.631290
 231	2.3100e-001	2.7631	43.669294
 232	2.3200e-001	2.7734	43.694321
 233	2.3300e-001	2.7825	43.738814
 234	2.3400e-001	2.7993	43.770330
 235	2.3500e-001	2.8097	43.771257
 236	2.3600e-001	2.8178	43.828727
 237	2.3700e-001	2.8333	43.850973
 238	2.3800e-001	2.8443	43.865804
 239	2.3900e-001	2.8548	43.896393
 240	2.4000e-001	2.8667	43.948302
 241	2.4100e-001	2.8791	43.990941
 242	2.4200e-001	2.8913	43.990941
 243	2.4300e-001	2.9052	44.017822
 244	2.4400e-001	2.9153	44.086415
 245	2.4500e-001	2.9282	44.068803
 246	2.4600e-001	2.9408	44.107734
 247	2.4700e-001	2.9514	44.139250
 248	2.4800e-001	2.9642	44.127200
 249	2.4900e-001	2.9744	44.181889
 250	2.5000e-001	2.9865	44.194866
 251	2.5100e-001	2.9996	44.226382
 252	2.5200e-001	2.9891	44.282925
 253	2.5300e-001	2.9754	44.234724
 254	2.5400e-001	2.9646	44.230090
 255	2.5500e-001	2.9503	44.207843
 256	2.5600e-001	2.9398	44.200428
 257	2.5700e-001	2.9287	44.224528
 258	2.5800e-001	2.9175	44.172620
 259	2.5900e-001	2.9037	44.172620
 260	2.6000e-001	2.8916	44.159643
 261	2.6100e-001	2.8778	44.134615
 262	2.6200e-001	2.8683	44.122565
 263	2.6300e-001	2.8558	44.110515
 264	2.6400e-001	2.8446	44.125346
 265	2.6500e-001	2.8298	44.101246
 266	2.6600e-001	2.8201	44.048411
 267	2.6700e-001	2.8089	44.071584
 268	2.6800e-001	2.7959	44.050264
 269	2.6900e-001	2.7814	44.053972
 270	2.7000e-001	2.7728	44.063241
 271	2.7100e-001	2.7597	44.034506
 272	2.7200e-001	2.7478	44.012260
 273	2.7300e-001	2.7325	43.980744
 274	2.7400e-001	2.7247	43.970548
 275	2.7500e-001	2.7122	43.945521
 276	2.7600e-001	2.6992	43.941813
 277	2.7700e-001	2.6853	43.934398
 278	2.7800e-001	2.6753	43.918640
 279	2.7900e-001	2.6642	43.884343
 280	2.8000e-001	2.6517	43.899174
 281	2.8100e-001	2.6371	43.870439
 282	2.8200e-001	2.6280	43.857462
 283	2.8300e-001	2.6168	43.850973
 284	2.8400e-001	2.6040	43.814823
 285	2.8500e-001	2.5927	43.788869
 286	2.8600e-001	2.5771	43.788869
 287	2.8700e-001	2.5671	43.779599
 288	2.8800e-001	2.5573	43.766622
 289	2.8900e-001	2.5464	43.729545
 290	2.9000e-001	2.5315	43.712860
 291	2.9100e-001	2.5200	43.718422
 292	2.9200e-001	2.5056	43.654463
 293	2.9300e-001	2.4939	43.678563
 294	2.9400e-001	2.4817	43.661879
 295	2.9500e-001	2.4701	43.636851
 296	2.9600e-001	2.4598	43.636851
 297	2.9700e-001	2.4457	43.609043
 298	2.9800e-001	2.4366	43.618313
 299	2.9900e-001	2.4245	43.604409
 300	3.0000e-001	2.4107	43.566404
 301	3.0100e-001	2.3988	43.578455
 302	3.0200e-001	2.3890	43.514496
 303	3.0300e-001	2.3742	43.504300
 304	3.0400e-001	2.3621	43.455172
 305	3.0500e-001	2.3502	43.459807
 306	3.0600e-001	2.3358	43.443122
 307	3.0700e-001	2.3275	43.409752
 308	3.0800e-001	2.3158	43.416241
 309	3.0900e-001	2.3048	43.404191
 310	3.1000e-001	2.2925	43.372675
 311	3.1100e-001	2.2797	43.355990
 312	3.1200e-001	2.2659	43.335598
 313	3.1300e-001	2.2553	43.325401
 314	3.1400e-001	2.2427	43.305009
 315	3.1500e-001	2.2307	43.311497
 316	3.1600e-001	2.2208	43.300374
 317	3.1700e-001	2.2058	43.257735
 318	3.1800e-001	2.1954	43.243831
 319	3.1900e-001	2.1852	43.224365
 320	3.2000e-001	2.1743	43.156699
 321	3.2100e-001	2.1603	43.180799
 322	3.2200e-001	2.1484	43.172457
 323	3.2300e-001	2.1371	43.128891
 324	3.2400e-001	2.1212	43.136307
 325	3.2500e-001	2.1100	43.113133
 326	3.2600e-001	2.0984	43.111279
 327	3.2700e-001	2.0883	43.070494
 328	3.2800e-001	2.0766	43.057517
 329	3.2900e-001	2.0641	43.059371
 330	3.3000e-001	2.0521	43.010243
 331	3.3100e-001	2.0370	42.983362
 332	3.3200e-001	2.0257	42.981508
 333	3.3300e-001	2.0141	42.940723
 334	3.3400e-001	2.0039	42.935162
 335	3.3500e-001	1.9913	42.917550
 336	3.3600e-001	1.9794	42.896230
 337	3.3700e-001	1.9682	42.897157
 338	3.3800e-001	1.9547	42.826710
 339	3.3900e-001	1.9427	42.847103
 340	3.4000e-001	1.9312	42.822076
 341	3.4100e-001	1.9193	42.807245
 342	3.4200e-001	1.9054	42.798902
 343	3.4300e-001	1.8960	42.780364
 344	3.4400e-001	1.8849	42.749775
 345	3.4500e-001	1.8702	42.728455
 346	3.4600e-001	1.8595	42.696939
 347	3.4700e-001	1.8470	42.683962
 348	3.4800e-001	1.8332	42.660789
 349	3.4900e-001	1.8256	42.638543
 350	3.5000e-001	1.8131	42.622785
 351	3.5100e-001	1.7990	42.591269
 352	3.5200e-001	1.7866	42.567169
 353	3.5300e-001	1.7756	42.556045
 354	3.5400e-001	1.7633	42.558826
 355	3.5500e-001	1.7500	42.536580
 356	3.5600e-001	1.7399	42.502283
 357	3.5700e-001	1.7257	42.484671
 358	3.5800e-001	1.7147	42.470767
 359	3.5900e-001	1.7035	42.455009
 360	3.6000e-001	1.6904	42.426274
 361	3.6100e-001	1.6771	42.402174
 362	3.6200e-001	1.6689	42.375293
 363	3.6300e-001	1.6553	42.361389
 364	3.6400e-001	1.6443	42.333581
 365	3.6500e-001	1.6326	42.294650
 366	3.6600e-001	1.6189	42.297430
 367	3.6700e-001	1.6077	42.258499
 368	3.6800e-001	1.5969	42.251084
 369	3.6900e-001	1.5816	42.209372
 370	3.7000e-001	1.5701	42.216787
 371	3.7100e-001	1.5616	42.173221
 372	3.7200e-001	1.5483	42.163025
 373	3.7300e-001	1.5350	42.152829
 374	3.7400e-001	1.5217	42.129655
 375	3.7500e-001	1.5114	42.092578
 376	3.7600e-001	1.5012	42.056427
 377	3.7700e-001	1.4887	42.054574
 378	3.7800e-001	1.4745	42.035108
 379	3.7900e-001	1.4647	41.998957
 380	3.8000e-001	1.4510	41.980419
 381	3.8100e-001	1.4379	41.970222
 382	3.8200e-001	1.4268	41.922022
 383	3.8300e-001	1.4149	41.917387
 384	3.8400e-001	1.4033	41.884944
 385	3.8500e-001	1.3905	41.874748
 386	3.8600e-001	1.3778	41.854356
 387	3.8700e-001	1.3690	41.831182
 388	3.8800e-001	1.3533	41.795032
 389	3.8900e-001	1.3412	41.761662
 390	3.9000e-001	1.3312	41.766297
 391	3.9100e-001	1.3168	41.729219
 392	3.9200e-001	1.3046	41.696777
 393	3.9300e-001	1.2964	41.660626
 394	3.9400e-001	1.2821	41.650430
 395	3.9500e-001	1.2716	41.630964
 396	3.9600e-001	1.2601	41.605010
 397	3.9700e-001	1.2475	41.563298
 398	3.9800e-001	1.2352	41.548467
 399	3.9900e-001	1.2247	41.509536
 400	4.0000e-001	1.2117	41.492851
 401	4.0100e-001	1.1987	41.469678
 402	4.0200e-001	1.1858	41.443723
 403	4.0300e-001	1.1741	41.427966
 404	4.0400e-001	1.1613	41.389034
 405	4.0500e-001	1.1522	41.345468
 406	4.0600e-001	1.1372	41.333418
 407	4.0700e-001	1.1272	41.303756
 408	4.0800e-001	1.1149	41.293560
 409	4.0900e-001	1.1021	41.257409
 410	4.1000e-001	1.0904	41.222186
 411	4.1100e-001	1.0789	41.207355
 412	4.1200e-001	1.0667	41.171205
 413	4.1300e-001	1.0548	41.142470
 414	4.1400e-001	1.0417	41.121150
 415	4.1500e-001	1.0297	41.083146
 416	4.1600e-001	1.0198	41.065534
 417	4.1700e-001	1.0069	41.019187
 418	4.1800e-001	0.9929	40.988598
 419	4.1900e-001	0.9813	40.960790
 420	4.2000e-001	0.9724	40.920005
 421	4.2100e-001	0.9588	40.910736
 422	4.2200e-001	0.9468	40.830093
 423	4.2300e-001	0.9352	40.817115
 424	4.2400e-001	0.9220	40.793015
 425	4.2500e-001	0.9127	40.755938
 426	4.2600e-001	0.8966	40.718860
 427	4.2700e-001	0.8890	40.689198
 428	4.2800e-001	0.8757	40.627094
 429	4.2900e-001	0.8630	40.620605
 430	4.3000e-001	0.8496	40.562208
 431	4.3100e-001	0.8367	40.547377
 432	4.3200e-001	0.8288	40.499177
 433	4.3300e-001	0.8171	40.450049
 434	4.3400e-001	0.8044	40.389798
 435	4.3500e-001	0.7910	40.357356
 436	4.3600e-001	0.7796	40.329548
 437	4.3700e-001	0.7661	40.276712
 438	4.3800e-001	0.7572	40.215535
 439	4.3900e-001	0.7415	40.184946
 440	4.4000e-001	0.7317	40.087618
 441	4.4100e-001	0.7180	40.016244
 442	4.4200e-001	0.7066	39.981947
 443	4.4300e-001	0.6934	39.935600
 444	4.4400e-001	0.6853	39.888327
 445	4.4500e-001	0.6715	39.846615
 446	4.4600e-001	0.6593	39.778948
 447	4.4700e-001	0.6461	39.727040
 448	4.4800e-001	0.6343	39.662155
 449	4.4900e-001	0.6233	39.605611
 450	4.5000e-001	0.6136	39.542580
 451	4.5100e-001	0.5975	39.462864
 452	4.5200e-001	0.5843	39.424859
 453	4.5300e-001	0.5738	39.323823
 454	4.5400e-001	0.5624	39.258011
 455	4.5500e-001	0.5479	39.196833
 456	4.5600e-001	0.5375	39.105067
 457	4.5700e-001	0.5267	39.016081
 458	4.5800e-001	0.5148	38.875187
 459	4.5900e-001	0.5018	38.739854
 460	4.6000e-001	0.4896	38.665699
 461	4.6100e-001	0.4794	38.588764
 462	4.6200e-001	0.4662	38.511828
 463	4.6300e-001	0.4575	38.419135
 464	4.6400e-001	0.4417	38.315318
 465	4.6500e-001	0.4322	38.214282
 466	4.6600e-001	0.4167	38.090073
 467	4.6700e-001	0.4049	38.013137
 468	4.6800e-001	0.3943	37.895417
 469	4.6900e-001	0.3819	37.767500
 470	4.7000e-001	0.3709	37.677587
 471	4.7100e-001	0.3561	37.506104
 472	4.7200e-001	0.3475	37.393018
 473	4.7300e-001	0.3329	37.232658
 474	4.7400e-001	0.3213	37.091764
 475	4.7500e-001	0.3117	36.962920
 476	4.7600e-001	0.2991	36.704305
 477	4.7700e-001	0.2853	36.494818
 478	4.7800e-001	0.2771	36.387293
 479	4.7900e-001	0.2640	36.262157
 480	4.8000e-001	0.2502	36.144437
 481	4.8100e-001	0.2370	35.973880
 482	4.8200e-001	0.2265	35.841329
 483	4.8300e-001	0.2146	35.707850
 484	4.8400e-001	0.2029	35.515975
 485	4.8500e-001	0.1901	35.349126
 486	4.8600e-001	0.1778	35.186913
 487	4.8700e-001	0.1675	35.003380
 488	4.8800e-001	0.1534	34.825408
 489	4.8900e-001	0.1391	34.608505
 490	4.9000e-001	0.1314	34.416630
 491	4.9100e-001	0.1185	34.219193
 492	4.9200e-001	0.1065	33.965213
 493	4.9300e-001	0.0944	33.793730
 494	4.9400e-001	0.0823	33.457252
 495	4.9500e-001	0.0690	33.163414
 496	4.9600e-001	0.0583	33.029935
 497	4.9700e-001	0.0457	32.814886
 498	4.9800e-001	0.0362	32.621157
 499	4.9900e-001	0.0229	32.359761
 500	5.0000e-001	0.0117	32.148420
 501	5.0100e-001	-0.0029	31.901855
 502	5.0200e-001	-0.0131	31.633044
 503	5.0300e-001	-0.0253	31.364233
 504	5.0400e-001	-0.0365	31.133426
 505	5.0500e-001	-0.0497	30.821976
 506	5.0600e-001	-0.0605	30.531846
 507	5.0700e-001	-0.0707	30.236153
 508	5.0800e-001	-0.0841	29.943242
 509	5.0900e-001	-0.0980	29.627157
 510	5.1000e-001	-0.1093	29.313853
 511	5.1100e-001	-0.1208	28.988499
 512	5.1200e-001	-0.1307	28.552840
 513	5.1300e-001	-0.1447	28.129230
 514	5.1400e-001	-0.1572	27.800168
 515	5.1500e-001	-0.1681	27.451641
 516	5.1600e-001	-0.1776	27.109602
 517	5.1700e-001	-0.1929	26.718435
 518	5.1800e-001	-0.2039	26.276287
 519	5.1900e-001	-0.2174	25.855459
 520	5.2000e-001	-0.2281	25.435557
 521	5.2100e-001	-0.2399	25.000825
 522	5.2200e-001	-0.2536	24.535504
 523	5.2300e-001	-0.2663	24.055351
 524	5.2400e-001	-0.2771	23.557587
 525	5.2500e-001	-0.2876	23.053335
 526	5.2600e-001	-0.2985	22.560205
 527	5.2700e-001	-0.3120	22.040195
 528	5.2800e-001	-0.3276	21.484961
 529	5.2900e-001	-0.3373	20.968658
 530	5.3000e-001	-0.3521	20.275311
 531	5.3100e-001	-0.3589	19.594014
 532	5.3200e-001	-0.3735	19.053611
 533	5.3300e-001	-0.3864	18.485399
 534	5.3400e-001	-0.3978	17.893088
 535	5.3500e-001	-0.4097	17.247014
 536	5.3600e-001	-0.4198	16.651922
 537	5.3700e-001	-0.4343	16.028095
 538	5.3800e-001	-0.4452	15.420953
 539	5.3900e-001	-0.4573	14.781368
 540	5.4000e-001	-0.4689	14.143636
 541	5.4100e-001	-0.4801	13.494782
