»»»»»»»»»»»»»»»»»»»»»»»»»»»»»»»»»»»» Hysteresis ««««««««««««««««««««««««««««««««««««
»»»  Executed Version:	5.9.3
»»»  Vision Version:	5.9.8 (R)
»»»  Vision Compiled:	3/30/16
»»»  Driver Version:	5.9.8
»»»  Windows Version:	Windows 7
»»»  Processor Information:	x86 (AMD or Intel) - 2 Processors
»»»  Tester Name:	PMF0910-256
»»»  Tester S/N:	PMF0910-256
»»»  Internal Amp Type:	 RTI 100V      
»»»  Internal Amp S/N:	 iAB1-0000     
»»»  Execution Count:	1
»»»»»»»»»»»»»»»»»»»»»»»»»»»»»»»»»»»»»»»»»»««««««««««««««««««««««««««««««««««««««««««

Stored:	11/15/2016 - 8:22:18
Configured:	11/15/16 08:18:26 AM
Executed:	11/15/16 08:20:57 AM

»»»»»»»»»»»»»»»»»»»»»»»»»»»»»»»»»»» Sample Info ««««««««««««««««««««««««««««««««««««
Sample Name:	ba018b
Lot Name:	
Wafer Name:	
Die Row/Column:	1/1
Capacitor Number:	1
Sample Area (cm2):	1.23e-006
Sample Thickness (µm):	1.75e-001

Mux Loop Adjustment:	Disabled

Amplifier:	Internal

»»»»»»»»»»»»»»»»»»»»»»»»»»»»»»»»»»» Tester Info «««««««««««««««««««««««««««««««««««
Tester Name:	PMF0910-256
Tester Serial Number:	PMF0910-256
Return Signal Amp. Level:	16.67 [Index: 1]

»»»»»»»»»»»»»»»»»»»»»»»»»»»»»»»» Hysteresis Info ««««««««««««««««««««««««««««««««««
Task Name:	Hyst-1
Volts:	3.00
Field:	171.43 (kV/cm)
Hysteresis Period (ms):	2.00e+000
Preset:	Enabled
Preset Delay (ms):	1.00e+003
Profile:	Standard Bipolar

»»»»»»»»»»»»»»»»»»»»»»»»»»»»»»»»»»»»»» Data «««««««««««««««««««««««««««««««««««««««
Points:	2001

Valid Data

Point	Time (ms)	Drive Voltage	Measured Polarization
   1	1.0000e-003	-0.0037	-47.147684
   2	2.0000e-003	0.0037	-47.162516
   3	3.0000e-003	0.0089	-47.129145
   4	4.0000e-003	0.0156	-47.051279
   5	5.0000e-003	0.0199	-47.040156
   6	6.0000e-003	0.0272	-47.084650
   7	7.0000e-003	0.0308	-47.058695
   8	8.0000e-003	0.0386	-47.058695
   9	9.0000e-003	0.0471	-47.077234
  10	1.0000e-002	0.0507	-46.906671
  11	1.1000e-002	0.0550	-47.088358
  12	1.2000e-002	0.0631	-47.047571
  13	1.3000e-002	0.0672	-46.991953
  14	1.4000e-002	0.0738	-46.995661
  15	1.5000e-002	0.0790	-46.858469
  16	1.6000e-002	0.0851	-46.932627
  17	1.7000e-002	0.0910	-46.858469
  18	1.8000e-002	0.0997	-46.776895
  19	1.9000e-002	0.1040	-46.799143
  20	2.0000e-002	0.1098	-46.806558
  21	2.1000e-002	0.1171	-46.791727
  22	2.2000e-002	0.1222	-46.769480
  23	2.3000e-002	0.1289	-46.717569
  24	2.4000e-002	0.1344	-46.598917
  25	2.5000e-002	0.1385	-46.702738
  26	2.6000e-002	0.1460	-46.650827
  27	2.7000e-002	0.1519	-46.613748
  28	2.8000e-002	0.1590	-46.554422
  29	2.9000e-002	0.1626	-46.572961
  30	3.0000e-002	0.1701	-46.558130
  31	3.1000e-002	0.1761	-46.539590
  32	3.2000e-002	0.1826	-46.417230
  33	3.3000e-002	0.1893	-46.354196
  34	3.4000e-002	0.1958	-46.454309
  35	3.5000e-002	0.1980	-46.246667
  36	3.6000e-002	0.2079	-46.205880
  37	3.7000e-002	0.2144	-46.128014
  38	3.8000e-002	0.2204	-46.064980
  39	3.9000e-002	0.2220	-46.068688
  40	4.0000e-002	0.2322	-46.046441
  41	4.1000e-002	0.2373	-45.942620
  42	4.2000e-002	0.2435	-45.823967
  43	4.3000e-002	0.2484	-45.798012
  44	4.4000e-002	0.2546	-45.838799
  45	4.5000e-002	0.2592	-45.620033
  46	4.6000e-002	0.2650	-45.531044
  47	4.7000e-002	0.2724	-45.568123
  48	4.8000e-002	0.2795	-45.416099
  49	4.9000e-002	0.2860	-45.375313
  50	5.0000e-002	0.2894	-45.334526
  51	5.1000e-002	0.2994	-45.100929
  52	5.2000e-002	0.3026	-45.130592
  53	5.3000e-002	0.3099	-45.086097
  54	5.4000e-002	0.3156	-44.908118
  55	5.5000e-002	0.3223	-44.833961
  56	5.6000e-002	0.3240	-44.782050
  57	5.7000e-002	0.3300	-44.641150
  58	5.8000e-002	0.3382	-44.618903
  59	5.9000e-002	0.3435	-44.522498
  60	6.0000e-002	0.3482	-44.348227
  61	6.1000e-002	0.3577	-44.337103
  62	6.2000e-002	0.3632	-44.185080
  63	6.3000e-002	0.3677	-44.144293
  64	6.4000e-002	0.3743	-44.029348
  65	6.5000e-002	0.3810	-44.025640
  66	6.6000e-002	0.3863	-43.814291
  67	6.7000e-002	0.3925	-43.773504
  68	6.8000e-002	0.3963	-43.643728
  69	6.9000e-002	0.4041	-43.454625
  70	7.0000e-002	0.4092	-43.306310
  71	7.1000e-002	0.4153	-43.224736
  72	7.2000e-002	0.4234	-43.146870
  73	7.3000e-002	0.4285	-42.983723
  74	7.4000e-002	0.4324	-42.902150
  75	7.5000e-002	0.4411	-42.842823
  76	7.6000e-002	0.4492	-42.653721
  77	7.7000e-002	0.4504	-42.520237
  78	7.8000e-002	0.4579	-42.442371
  79	7.9000e-002	0.4664	-42.249561
  80	8.0000e-002	0.4721	-42.156863
  81	8.1000e-002	0.4754	-42.001132
  82	8.2000e-002	0.4848	-41.774951
  83	8.3000e-002	0.4879	-41.901019
  84	8.4000e-002	0.4962	-41.652590
  85	8.5000e-002	0.5006	-41.548769
  86	8.6000e-002	0.5065	-41.444948
  87	8.7000e-002	0.5125	-41.170565
  88	8.8000e-002	0.5190	-41.018541
  89	8.9000e-002	0.5247	-40.873933
  90	9.0000e-002	0.5316	-40.721910
  91	9.1000e-002	0.5359	-40.547639
  92	9.2000e-002	0.5439	-40.469773
  93	9.3000e-002	0.5475	-40.247300
  94	9.4000e-002	0.5533	-40.102692
  95	9.5000e-002	0.5590	-39.935837
  96	9.6000e-002	0.5662	-39.683700
  97	9.7000e-002	0.5717	-39.557632
  98	9.8000e-002	0.5761	-39.476059
  99	9.9000e-002	0.5843	-39.197967
 100	1.0000e-001	0.5910	-39.031112
 101	1.0100e-001	0.5947	-39.034820
 102	1.0200e-001	0.6015	-38.682570
 103	1.0300e-001	0.6089	-38.589873
 104	1.0400e-001	0.6139	-38.404478
 105	1.0500e-001	0.6194	-38.182005
 106	1.0600e-001	0.6275	-37.959531
 107	1.0700e-001	0.6336	-37.696271
 108	1.0800e-001	0.6371	-37.547955
 109	1.0900e-001	0.6446	-37.321774
 110	1.1000e-001	0.6503	-37.099301
 111	1.1100e-001	0.6567	-36.928738
 112	1.1200e-001	0.6628	-36.750759
 113	1.1300e-001	0.6704	-36.480083
 114	1.1400e-001	0.6741	-36.309520
 115	1.1500e-001	0.6808	-36.105586
 116	1.1600e-001	0.6890	-35.879405
 117	1.1700e-001	0.6926	-35.623560
 118	1.1800e-001	0.6993	-35.404794
 119	1.1900e-001	0.7060	-35.267603
 120	1.2000e-001	0.7111	-34.978387
 121	1.2100e-001	0.7171	-34.804116
 122	1.2200e-001	0.7223	-34.492653
 123	1.2300e-001	0.7290	-34.188606
 124	1.2400e-001	0.7361	-33.921638
 125	1.2500e-001	0.7415	-33.647254
 126	1.2600e-001	0.7454	-33.458152
 127	1.2700e-001	0.7509	-33.079947
 128	1.2800e-001	0.7605	-32.965002
 129	1.2900e-001	0.7626	-32.664663
 130	1.3000e-001	0.7712	-32.416235
 131	1.3100e-001	0.7771	-32.134435
 132	1.3200e-001	0.7832	-31.893422
 133	1.3300e-001	0.7882	-31.615330
 134	1.3400e-001	0.7969	-31.374317
 135	1.3500e-001	0.8000	-31.048023
 136	1.3600e-001	0.8066	-30.758807
 137	1.3700e-001	0.8128	-30.636447
 138	1.3800e-001	0.8175	-30.269366
 139	1.3900e-001	0.8265	-30.035769
 140	1.4000e-001	0.8313	-29.676103
 141	1.4100e-001	0.8371	-29.383180
 142	1.4200e-001	0.8435	-29.119920
 143	1.4300e-001	0.8485	-28.782502
 144	1.4400e-001	0.8571	-28.426544
 145	1.4500e-001	0.8598	-28.063171
 146	1.4600e-001	0.8657	-27.862945
 147	1.4700e-001	0.8732	-27.514403
 148	1.4800e-001	0.8789	-27.291930
 149	1.4900e-001	0.8839	-27.028669
 150	1.5000e-001	0.8905	-26.617094
 151	1.5100e-001	0.8979	-26.413160
 152	1.5200e-001	0.9024	-26.031247
 153	1.5300e-001	0.9077	-25.749447
 154	1.5400e-001	0.9158	-25.482479
 155	1.5500e-001	0.9196	-25.215511
 156	1.5600e-001	0.9264	-24.907756
 157	1.5700e-001	0.9319	-24.711238
 158	1.5800e-001	0.9386	-24.329325
 159	1.5900e-001	0.9473	-23.891794
 160	1.6000e-001	0.9515	-23.624826
 161	1.6100e-001	0.9579	-23.294823
 162	1.6200e-001	0.9634	-22.990776
 163	1.6300e-001	0.9676	-22.634819
 164	1.6400e-001	0.9747	-22.382682
 165	1.6500e-001	0.9797	-22.093467
 166	1.6600e-001	0.9872	-21.848746
 167	1.6700e-001	0.9944	-21.414923
 168	1.6800e-001	1.0004	-21.173910
 169	1.6900e-001	1.0046	-20.925481
 170	1.7000e-001	1.0100	-20.525029
 171	1.7100e-001	1.0180	-20.157948
 172	1.7200e-001	1.0220	-19.968845
 173	1.7300e-001	1.0291	-19.605472
 174	1.7400e-001	1.0365	-19.360751
 175	1.7500e-001	1.0409	-19.101199
 176	1.7600e-001	1.0469	-18.730410
 177	1.7700e-001	1.0522	-18.374452
 178	1.7800e-001	1.0583	-18.081529
 179	1.7900e-001	1.0656	-17.766358
 180	1.8000e-001	1.0694	-17.399277
 181	1.8100e-001	1.0758	-17.098938
 182	1.8200e-001	1.0838	-16.802307
 183	1.8300e-001	1.0883	-16.513091
 184	1.8400e-001	1.0966	-16.209044
 185	1.8500e-001	1.1011	-15.838255
 186	1.8600e-001	1.1044	-15.519377
 187	1.8700e-001	1.1117	-15.259824
 188	1.8800e-001	1.1186	-14.870496
 189	1.8900e-001	1.1243	-14.514538
 190	1.9000e-001	1.1292	-14.236446
 191	1.9100e-001	1.1380	-13.906444
 192	1.9200e-001	1.1430	-13.572734
 193	1.9300e-001	1.1510	-13.353968
 194	1.9400e-001	1.1552	-12.942393
 195	1.9500e-001	1.1595	-12.523401
 196	1.9600e-001	1.1658	-12.263849
 197	1.9700e-001	1.1733	-11.870812
 198	1.9800e-001	1.1787	-11.503731
 199	1.9900e-001	1.1855	-11.270134
 200	2.0000e-001	1.1930	-10.762153
 201	2.0100e-001	1.1953	-10.495185
 202	2.0200e-001	1.2051	-10.176306
 203	2.0300e-001	1.2080	-9.816641
 204	2.0400e-001	1.2152	-9.482931
 205	2.0500e-001	1.2196	-9.164052
 206	2.0600e-001	1.2252	-8.804387
 207	2.0700e-001	1.2334	-8.396519
 208	2.0800e-001	1.2406	-8.099887
 209	2.0900e-001	1.2452	-7.717975
 210	2.1000e-001	1.2503	-7.358309
 211	2.1100e-001	1.2576	-7.091341
 212	2.1200e-001	1.2617	-6.642686
 213	2.1300e-001	1.2663	-6.334931
 214	2.1400e-001	1.2743	-5.878861
 215	2.1500e-001	1.2814	-5.556274
 216	2.1600e-001	1.2861	-5.200317
 217	2.1700e-001	1.2906	-4.888854
 218	2.1800e-001	1.2965	-4.410536
 219	2.1900e-001	1.3049	-4.069410
 220	2.2000e-001	1.3101	-3.646711
 221	2.2100e-001	1.3148	-3.290753
 222	2.2200e-001	1.3245	-2.912548
 223	2.2300e-001	1.3275	-2.589962
 224	2.2400e-001	1.3330	-2.174678
 225	2.2500e-001	1.3383	-1.696360
 226	2.2600e-001	1.3493	-1.366358
 227	2.2700e-001	1.3512	-0.921411
 228	2.2800e-001	1.3594	-0.576577
 229	2.2900e-001	1.3652	-0.261406
 230	2.3000e-001	1.3696	0.172417
 231	2.3100e-001	1.3745	0.643319
 232	2.3200e-001	1.3821	1.043771
 233	2.3300e-001	1.3889	1.396021
 234	2.3400e-001	1.3943	1.885462
 235	2.3500e-001	1.4004	2.252544
 236	2.3600e-001	1.4053	2.697490
 237	2.3700e-001	1.4146	3.046032
 238	2.3800e-001	1.4204	3.468732
 239	2.3900e-001	1.4252	4.006376
 240	2.4000e-001	1.4307	4.314131
 241	2.4100e-001	1.4370	4.710875
 242	2.4200e-001	1.4426	5.170654
 243	2.4300e-001	1.4471	5.623016
 244	2.4400e-001	1.4552	6.045716
 245	2.4500e-001	1.4602	6.512910
 246	2.4600e-001	1.4672	6.865160
 247	2.4700e-001	1.4740	7.176622
 248	2.4800e-001	1.4767	7.743930
 249	2.4900e-001	1.4850	8.177753
 250	2.5000e-001	1.4916	8.648655
 251	2.5100e-001	1.4964	9.030568
 252	2.5200e-001	1.5024	9.564504
 253	2.5300e-001	1.5077	9.901922
 254	2.5400e-001	1.5141	10.539679
 255	2.5500e-001	1.5211	11.003166
 256	2.5600e-001	1.5270	11.440697
 257	2.5700e-001	1.5310	11.911599
 258	2.5800e-001	1.5382	12.363962
 259	2.5900e-001	1.5451	12.756998
 260	2.6000e-001	1.5500	13.302058
 261	2.6100e-001	1.5580	13.869365
 262	2.6200e-001	1.5623	14.373638
 263	2.6300e-001	1.5701	14.855664
 264	2.6400e-001	1.5743	15.319150
 265	2.6500e-001	1.5802	15.708479
 266	2.6600e-001	1.5865	16.320281
 267	2.6700e-001	1.5948	16.850509
 268	2.6800e-001	1.6003	17.466019
 269	2.6900e-001	1.6041	17.985124
 270	2.7000e-001	1.6106	18.496813
 271	2.7100e-001	1.6153	19.023333
 272	2.7200e-001	1.6245	19.609180
 273	2.7300e-001	1.6277	20.243229
 274	2.7400e-001	1.6349	20.869863
 275	2.7500e-001	1.6403	21.429754
 276	2.7600e-001	1.6436	22.004477
 277	2.7700e-001	1.6532	22.549537
 278	2.7800e-001	1.6578	23.246621
 279	2.7900e-001	1.6656	24.066065
 280	2.8000e-001	1.6686	24.637080
 281	2.8100e-001	1.6758	25.248882
 282	2.8200e-001	1.6811	25.882931
 283	2.8300e-001	1.6897	26.550351
 284	2.8400e-001	1.6946	27.247435
 285	2.8500e-001	1.7010	28.026092
 286	2.8600e-001	1.7062	28.826996
 287	2.8700e-001	1.7104	29.594530
 288	2.8800e-001	1.7192	30.321276
 289	2.8900e-001	1.7259	31.103641
 290	2.9000e-001	1.7307	31.945332
 291	2.9100e-001	1.7375	32.794439
 292	2.9200e-001	1.7414	33.669502
 293	2.9300e-001	1.7500	34.481530
 294	2.9400e-001	1.7561	35.289850
 295	2.9500e-001	1.7597	36.079631
 296	2.9600e-001	1.7657	37.047390
 297	2.9700e-001	1.7752	38.148634
 298	2.9800e-001	1.7775	38.860549
 299	2.9900e-001	1.7848	39.891342
 300	3.0000e-001	1.7899	40.692247
 301	3.0100e-001	1.7959	41.545062
 302	3.0200e-001	1.8027	42.546192
 303	3.0300e-001	1.8082	43.417546
 304	3.0400e-001	1.8185	44.429801
 305	3.0500e-001	1.8212	45.371605
 306	3.0600e-001	1.8279	46.242959
 307	3.0700e-001	1.8349	47.014200
 308	3.0800e-001	1.8388	47.930049
 309	3.0900e-001	1.8463	48.649380
 310	3.1000e-001	1.8512	49.446577
 311	3.1100e-001	1.8584	50.258605
 312	3.1200e-001	1.8604	50.814788
 313	3.1300e-001	1.8694	51.456253
 314	3.1400e-001	1.8752	51.916032
 315	3.1500e-001	1.8801	52.594576
 316	3.1600e-001	1.8865	52.876376
 317	3.1700e-001	1.8932	53.428851
 318	3.1800e-001	1.8988	53.658740
 319	3.1900e-001	1.9057	54.007282
 320	3.2000e-001	1.9108	54.240879
 321	3.2100e-001	1.9154	54.415150
 322	3.2200e-001	1.9219	54.804479
 323	3.2300e-001	1.9315	54.963918
 324	3.2400e-001	1.9347	55.067739
 325	3.2500e-001	1.9395	55.230886
 326	3.2600e-001	1.9463	55.382910
 327	3.2700e-001	1.9527	55.516394
 328	3.2800e-001	1.9589	55.620215
 329	3.2900e-001	1.9675	55.735159
 330	3.3000e-001	1.9722	55.824149
 331	3.3100e-001	1.9754	55.916846
 332	3.3200e-001	1.9833	55.998420
 333	3.3300e-001	1.9864	56.228309
 334	3.3400e-001	1.9962	56.232017
 335	3.3500e-001	2.0016	56.328422
 336	3.3600e-001	2.0084	56.409995
 337	3.3700e-001	2.0135	56.372916
 338	3.3800e-001	2.0193	56.454490
 339	3.3900e-001	2.0239	56.580558
 340	3.4000e-001	2.0313	56.606514
 341	3.4100e-001	2.0355	56.725166
 342	3.4200e-001	2.0418	56.806740
 343	3.4300e-001	2.0499	56.873482
 344	3.4400e-001	2.0568	57.018089
 345	3.4500e-001	2.0600	57.014382
 346	3.4600e-001	2.0682	57.088539
 347	3.4700e-001	2.0730	57.151574
 348	3.4800e-001	2.0784	57.177529
 349	3.4900e-001	2.0850	57.192360
 350	3.5000e-001	2.0894	57.188652
 351	3.5100e-001	2.0956	57.322137
 352	3.5200e-001	2.1041	57.459328
 353	3.5300e-001	2.1078	57.466744
 354	3.5400e-001	2.1147	57.440789
 355	3.5500e-001	2.1213	57.451913
 356	3.5600e-001	2.1303	57.511239
 357	3.5700e-001	2.1311	57.526071
 358	3.5800e-001	2.1382	57.681802
 359	3.5900e-001	2.1473	57.733712
 360	3.6000e-001	2.1521	57.826410
 361	3.6100e-001	2.1544	57.870904
 362	3.6200e-001	2.1634	57.941354
 363	3.6300e-001	2.1706	57.919107
 364	3.6400e-001	2.1743	58.063715
 365	3.6500e-001	2.1812	58.041467
 366	3.6600e-001	2.1886	58.022928
 367	3.6700e-001	2.1910	58.067423
 368	3.6800e-001	2.1993	58.115625
 369	3.6900e-001	2.2021	58.223154
 370	3.7000e-001	2.2108	58.289896
 371	3.7100e-001	2.2186	58.360346
 372	3.7200e-001	2.2242	58.334391
 373	3.7300e-001	2.2276	58.308435
 374	3.7400e-001	2.2346	58.293604
 375	3.7500e-001	2.2408	58.427088
 376	3.7600e-001	2.2475	58.527201
 377	3.7700e-001	2.2515	58.560572
 378	3.7800e-001	2.2570	58.579111
 379	3.7900e-001	2.2659	58.590235
 380	3.8000e-001	2.2719	58.679225
 381	3.8100e-001	2.2783	58.720011
 382	3.8200e-001	2.2839	58.875743
 383	3.8300e-001	2.2882	58.823832
 384	3.8400e-001	2.2931	58.797877
 385	3.8500e-001	2.2996	58.797877
 386	3.8600e-001	2.3066	58.838664
 387	3.8700e-001	2.3130	58.894282
 388	3.8800e-001	2.3174	58.953608
 389	3.8900e-001	2.3216	59.057429
 390	3.9000e-001	2.3306	59.072261
 391	3.9100e-001	2.3367	59.027766
 392	3.9200e-001	2.3453	59.068553
 393	3.9300e-001	2.3483	59.094508
 394	3.9400e-001	2.3560	59.198329
 395	3.9500e-001	2.3593	59.305858
 396	3.9600e-001	2.3659	59.239116
 397	3.9700e-001	2.3744	59.335521
 398	3.9800e-001	2.3806	59.376308
 399	3.9900e-001	2.3846	59.409679
 400	4.0000e-001	2.3918	59.472713
 401	4.0100e-001	2.3985	59.576534
 402	4.0200e-001	2.4048	59.509792
 403	4.0300e-001	2.4086	59.491253
 404	4.0400e-001	2.4154	59.480129
 405	4.0500e-001	2.4209	59.565410
 406	4.0600e-001	2.4254	59.609905
 407	4.0700e-001	2.4360	59.806423
 408	4.0800e-001	2.4394	59.698894
 409	4.0900e-001	2.4441	59.758221
 410	4.1000e-001	2.4508	59.739681
 411	4.1100e-001	2.4573	59.784176
 412	4.1200e-001	2.4627	59.887997
 413	4.1300e-001	2.4690	59.884289
 414	4.1400e-001	2.4770	59.947323
 415	4.1500e-001	2.4795	60.002942
 416	4.1600e-001	2.4873	59.984402
 417	4.1700e-001	2.4928	60.010357
 418	4.1800e-001	2.4987	60.143841
 419	4.1900e-001	2.5060	60.192044
 420	4.2000e-001	2.5110	60.177212
 421	4.2100e-001	2.5152	60.132718
 422	4.2200e-001	2.5246	60.180920
 423	4.2300e-001	2.5269	60.188336
 424	4.2400e-001	2.5362	60.284741
 425	4.2500e-001	2.5410	60.336652
 426	4.2600e-001	2.5476	60.421933
 427	4.2700e-001	2.5535	60.262494
 428	4.2800e-001	2.5578	60.295865
 429	4.2900e-001	2.5659	60.370023
 430	4.3000e-001	2.5719	60.440473
 431	4.3100e-001	2.5776	60.499799
 432	4.3200e-001	2.5828	60.522046
 433	4.3300e-001	2.5893	60.566541
 434	4.3400e-001	2.5932	60.548001
 435	4.3500e-001	2.6013	60.700025
 436	4.3600e-001	2.6089	60.740812
 437	4.3700e-001	2.6130	60.781599
 438	4.3800e-001	2.6187	60.789014
 439	4.3900e-001	2.6245	60.814970
 440	4.4000e-001	2.6293	60.777891
 441	4.4100e-001	2.6385	60.748228
 442	4.4200e-001	2.6430	60.896543
 443	4.4300e-001	2.6498	60.926206
 444	4.4400e-001	2.6546	60.959577
 445	4.4500e-001	2.6604	60.918791
 446	4.4600e-001	2.6665	60.911375
 447	4.4700e-001	2.6730	60.992948
 448	4.4800e-001	2.6793	61.015196
 449	4.4900e-001	2.6858	61.148680
 450	4.5000e-001	2.6906	60.948454
 451	4.5100e-001	2.6959	61.137556
 452	4.5200e-001	2.7061	61.170927
 453	4.5300e-001	2.7109	61.245085
 454	4.5400e-001	2.7164	61.315535
 455	4.5500e-001	2.7200	61.278456
 456	4.5600e-001	2.7279	61.326658
 457	4.5700e-001	2.7331	61.304411
 458	4.5800e-001	2.7390	61.278456
 459	4.5900e-001	2.7441	61.352614
 460	4.6000e-001	2.7533	61.393401
 461	4.6100e-001	2.7570	61.437895
 462	4.6200e-001	2.7641	61.497221
 463	4.6300e-001	2.7694	61.486098
 464	4.6400e-001	2.7734	61.512053
 465	4.6500e-001	2.7832	61.493514
 466	4.6600e-001	2.7859	61.608458
 467	4.6700e-001	2.7917	61.623290
 468	4.6800e-001	2.8018	61.456435
 469	4.6900e-001	2.8065	61.745650
 470	4.7000e-001	2.8121	61.652953
 471	4.7100e-001	2.8151	61.701155
 472	4.7200e-001	2.8223	61.834640
 473	4.7300e-001	2.8278	61.871718
 474	4.7400e-001	2.8345	61.871718
 475	4.7500e-001	2.8402	61.842055
 476	4.7600e-001	2.8474	61.767897
 477	4.7700e-001	2.8531	61.849471
 478	4.7800e-001	2.8606	61.971831
 479	4.7900e-001	2.8671	62.016326
 480	4.8000e-001	2.8701	61.994079
 481	4.8100e-001	2.8780	61.986663
 482	4.8200e-001	2.8833	61.968124
 483	4.8300e-001	2.8907	62.094192
 484	4.8400e-001	2.8938	62.116439
 485	4.8500e-001	2.9025	62.238800
 486	4.8600e-001	2.9079	62.153518
 487	4.8700e-001	2.9115	62.205429
 488	4.8800e-001	2.9202	62.153518
 489	4.8900e-001	2.9254	62.279586
 490	4.9000e-001	2.9305	62.275879
 491	4.9100e-001	2.9372	62.327789
 492	4.9200e-001	2.9430	62.431610
 493	4.9300e-001	2.9492	62.320373
 494	4.9400e-001	2.9543	62.257339
 495	4.9500e-001	2.9630	62.346328
 496	4.9600e-001	2.9679	62.439026
 497	4.9700e-001	2.9751	62.505768
 498	4.9800e-001	2.9782	62.531723
 499	4.9900e-001	2.9864	62.528015
 500	5.0000e-001	2.9903	62.483520
 501	5.0100e-001	2.9993	62.553970
 502	5.0200e-001	2.9934	62.602173
 503	5.0300e-001	2.9858	62.605881
 504	5.0400e-001	2.9800	62.642960
 505	5.0500e-001	2.9736	62.628128
 506	5.0600e-001	2.9686	62.557678
 507	5.0700e-001	2.9597	62.631836
 508	5.0800e-001	2.9549	62.642960
 509	5.0900e-001	2.9496	62.657791
 510	5.1000e-001	2.9425	62.705994
 511	5.1100e-001	2.9362	62.565094
 512	5.1200e-001	2.9308	62.561386
 513	5.1300e-001	2.9239	62.572510
 514	5.1400e-001	2.9183	62.609589
 515	5.1500e-001	2.9132	62.635544
 516	5.1600e-001	2.9062	62.613297
 517	5.1700e-001	2.8990	62.550262
 518	5.1800e-001	2.8971	62.520599
 519	5.1900e-001	2.8886	62.602173
 520	5.2000e-001	2.8831	62.587341
 521	5.2100e-001	2.8772	62.631836
 522	5.2200e-001	2.8706	62.683746
 523	5.2300e-001	2.8644	62.539139
 524	5.2400e-001	2.8595	62.487228
 525	5.2500e-001	2.8513	62.598465
 526	5.2600e-001	2.8461	62.646668
 527	5.2700e-001	2.8409	62.642960
 528	5.2800e-001	2.8366	62.598465
 529	5.2900e-001	2.8281	62.513184
 530	5.3000e-001	2.8233	62.468689
 531	5.3100e-001	2.8165	62.561386
 532	5.3200e-001	2.8140	62.572510
 533	5.3300e-001	2.8053	62.609589
 534	5.3400e-001	2.7991	62.542847
 535	5.3500e-001	2.7950	62.509476
 536	5.3600e-001	2.7888	62.483520
 537	5.3700e-001	2.7801	62.539139
 538	5.3800e-001	2.7752	62.439026
