»»»»»»»»»»»»»»»»»»»»»»»»»»»»»»»»»»»» Hysteresis ««««««««««««««««««««««««««««««««««««
»»»  Executed Version:	5.12.0
»»»  Vision Version:	5.12.5 (R)
»»»  Vision Compiled:	2/24/17
»»»  Driver Version:	5.12.4
»»»  Windows Version:	Windows 7
»»»  Processor Information:	x86 (AMD or Intel) - 2 Processors
»»»  Tester Name:	PMF0910-256
»»»  Tester S/N:	PMF0910-256
»»»  Internal Amp Type:	 RTI 100V      
»»»  Internal Amp S/N:	 iAB1-0000     
»»»  Execution Count:	1
»»»»»»»»»»»»»»»»»»»»»»»»»»»»»»»»»»»»»»»»»»««««««««««««««««««««««««««««««««««««««««««

Stored:	8/3/2017 - 10:51:58
Configured:	08/03/17 10:04:09 AM
Executed:	08/03/17 10:51:31 AM

»»»»»»»»»»»»»»»»»»»»»»»»»»»»»»»»»»» Sample Info ««««««««««««««««««««««««««««««««««««
Sample Name:	
Lot Name:	
Wafer Name:	
Die Row/Column:	0/0
Capacitor Number:	0
Sample Area (cm2):	4.91e-006
Sample Thickness (µm):	1.00e-001

Mux Loop Adjustment:	Disabled

Amplifier:	Internal

»»»»»»»»»»»»»»»»»»»»»»»»»»»»»»»»»»» Tester Info «««««««««««««««««««««««««««««««««««
Tester Name:	PMF0910-256
Tester Serial Number:	PMF0910-256
Return Signal Amp. Level:	16.67 [Index: 1]

»»»»»»»»»»»»»»»»»»»»»»»»»»»»»»»» Hysteresis Info ««««««««««««««««««««««««««««««««««
Task Name:	Hyst-1
Volts:	3.00
Field:	300.00 (kV/cm)
Hysteresis Period (ms):	3.20e+001
Preset:	Enabled
Preset Delay (ms):	1.00e+003
Profile:	Double Bipolar

»»»»»»»»»»»»»»»»»»»»»»»»»»»»»»»»»»»»»» Data «««««««««««««««««««««««««««««««««««««««
Points:	2001

Valid Data

Point	Time (ms)	Drive Voltage	Measured Polarization
   1	1.6000e-002	-0.0033	-10.780253
   2	3.2000e-002	0.0095	-10.768203
   3	4.8000e-002	0.0251	-10.673656
   4	6.4000e-002	0.0342	-10.590231
   5	8.0000e-002	0.0466	-10.523492
   6	9.6000e-002	0.0581	-10.323274
   7	1.1200e-001	0.0701	-10.191649
   8	1.2800e-001	0.0826	-9.953427
   9	1.4400e-001	0.0937	-9.657735
  10	1.6000e-001	0.1046	-9.513133
  11	1.7600e-001	0.1167	-8.941214
  12	1.9200e-001	0.1334	-8.684453
  13	2.0800e-001	0.1437	-8.327583
  14	2.2400e-001	0.1519	-7.967933
  15	2.4000e-001	0.1647	-7.545250
  16	2.5600e-001	0.1785	-7.131837
  17	2.7200e-001	0.1915	-6.627585
  18	2.8800e-001	0.2023	-6.169679
  19	3.0400e-001	0.2152	-5.730312
  20	3.2000e-001	0.2270	-5.325241
  21	3.3600e-001	0.2407	-4.874751
  22	3.5200e-001	0.2514	-4.539200
  23	3.6800e-001	0.2596	-4.008993
  24	3.8400e-001	0.2750	-3.535330
  25	4.0000e-001	0.2856	-2.882768
  26	4.1600e-001	0.2979	-2.444327
  27	4.3200e-001	0.3118	-2.011449
  28	4.4800e-001	0.3240	-1.637894
  29	4.6400e-001	0.3328	-1.062267
  30	4.8000e-001	0.3455	-0.237295
  31	4.9600e-001	0.3596	0.252126
  32	5.1200e-001	0.3704	0.739694
  33	5.2800e-001	0.3816	1.290293
  34	5.4400e-001	0.3953	1.794546
  35	5.6000e-001	0.4065	2.321045
  36	5.7600e-001	0.4181	2.911503
  37	5.9200e-001	0.4314	3.578896
  38	6.0800e-001	0.4440	4.177696
  39	6.2400e-001	0.4552	4.569789
  40	6.4000e-001	0.4665	5.090727
  41	6.5600e-001	0.4789	5.653376
  42	6.7200e-001	0.4880	6.212318
  43	6.8800e-001	0.5019	6.787017
  44	7.0400e-001	0.5126	7.215261
  45	7.2000e-001	0.5257	7.661117
  46	7.3600e-001	0.5392	8.281237
  47	7.5200e-001	0.5511	8.775293
  48	7.6800e-001	0.5617	9.196121
  49	7.8400e-001	0.5759	9.745794
  50	8.0000e-001	0.5874	10.339959
  51	8.1600e-001	0.5988	10.845138
  52	8.3200e-001	0.6120	11.241867
  53	8.4800e-001	0.6219	11.747973
  54	8.6400e-001	0.6363	12.218856
  55	8.8000e-001	0.6463	12.696227
  56	8.9600e-001	0.6590	13.299662
  57	9.1200e-001	0.6715	13.557350
  58	9.2800e-001	0.6831	14.070872
  59	9.4400e-001	0.6949	14.606640
  60	9.6000e-001	0.7070	15.047861
  61	9.7600e-001	0.7200	15.554895
  62	9.9200e-001	0.7313	16.051732
  63	1.0080e+000	0.7419	16.409529
  64	1.0240e+000	0.7532	16.765472
  65	1.0400e+000	0.7653	17.307729
  66	1.0560e+000	0.7797	17.750804
  67	1.0720e+000	0.7901	18.169778
  68	1.0880e+000	0.8027	18.635099
  69	1.1040e+000	0.8133	19.048512
  70	1.1200e+000	0.8263	19.435971
  71	1.1360e+000	0.8396	19.820649
  72	1.1520e+000	0.8494	20.353637
  73	1.1680e+000	0.8630	20.687333
  74	1.1840e+000	0.8749	21.160070
  75	1.2000e+000	0.8909	21.525283
  76	1.2160e+000	0.8999	21.934988
  77	1.2320e+000	0.9107	22.256634
  78	1.2480e+000	0.9214	22.789622
  79	1.2640e+000	0.9325	23.163177
  80	1.2800e+000	0.9474	23.617375
  81	1.2960e+000	0.9597	24.016884
  82	1.3120e+000	0.9706	24.439566
  83	1.3280e+000	0.9841	24.820536
  84	1.3440e+000	0.9924	25.182041
  85	1.3600e+000	1.0073	25.528714
  86	1.3760e+000	1.0207	26.112683
  87	1.3920e+000	1.0283	26.470480
  88	1.4080e+000	1.0423	26.908921
  89	1.4240e+000	1.0535	27.301941
  90	1.4400e+000	1.0664	27.630076
  91	1.4560e+000	1.0781	28.094470
  92	1.4720e+000	1.0911	28.629312
  93	1.4880e+000	1.1037	28.896269
  94	1.5040e+000	1.1158	29.260554
  95	1.5200e+000	1.1282	29.696214
  96	1.5360e+000	1.1390	30.173585
  97	1.5520e+000	1.1503	30.461862
  98	1.5680e+000	1.1639	30.640760
  99	1.5840e+000	1.1753	31.017096
 100	1.6000e+000	1.1877	31.485198
 101	1.6160e+000	1.1990	31.627019
 102	1.6320e+000	1.2113	31.741032
 103	1.6480e+000	1.2228	31.873584
 104	1.6640e+000	1.2359	32.041359
 105	1.6800e+000	1.2448	32.220258
 106	1.6960e+000	1.2580	32.374129
 107	1.7120e+000	1.2704	32.416768
 108	1.7280e+000	1.2822	32.669821
 109	1.7440e+000	1.2929	32.750464
 110	1.7600e+000	1.3056	32.860770
 111	1.7760e+000	1.3200	32.875601
 112	1.7920e+000	1.3300	32.972929
 113	1.8080e+000	1.3430	33.076745
 114	1.8240e+000	1.3552	33.098992
 115	1.8400e+000	1.3670	33.056353
 116	1.8560e+000	1.3765	33.153681
 117	1.8720e+000	1.3927	33.219493
 118	1.8880e+000	1.4022	33.320529
 119	1.9040e+000	1.4124	33.407661
 120	1.9200e+000	1.4263	33.279744
 121	1.9360e+000	1.4371	33.438250
 122	1.9520e+000	1.4518	33.421565
 123	1.9680e+000	1.4624	33.465131
 124	1.9840e+000	1.4738	33.533724
 125	2.0000e+000	1.4863	33.682034
 126	2.0160e+000	1.4988	33.741358
 127	2.0320e+000	1.5121	33.669984
 128	2.0480e+000	1.5213	33.720965
 129	2.0640e+000	1.5356	33.633833
 130	2.0800e+000	1.5446	33.727454
 131	2.0960e+000	1.5572	33.811805
 132	2.1120e+000	1.5727	33.750627
 133	2.1280e+000	1.5844	33.790485
 134	2.1440e+000	1.5929	33.834051
 135	2.1600e+000	1.6073	33.913768
 136	2.1760e+000	1.6173	34.011096
 137	2.1920e+000	1.6285	34.063004
 138	2.2080e+000	1.6413	34.085251
 139	2.2240e+000	1.6531	34.027781
 140	2.2400e+000	1.6673	34.051881
 141	2.2560e+000	1.6783	34.132524
 142	2.2720e+000	1.6917	34.191848
 143	2.2880e+000	1.7037	34.189994
 144	2.3040e+000	1.7142	34.234487
 145	2.3200e+000	1.7255	34.394847
 146	2.3360e+000	1.7390	34.386504
 147	2.3520e+000	1.7497	34.267857
 148	2.3680e+000	1.7632	34.318838
 149	2.3840e+000	1.7727	34.399482
 150	2.4000e+000	1.7866	34.487540
 151	2.4160e+000	1.8008	34.491248
 152	2.4320e+000	1.8098	34.422655
 153	2.4480e+000	1.8218	34.542230
 154	2.4640e+000	1.8349	34.716493
 155	2.4800e+000	1.8464	34.602480
 156	2.4960e+000	1.8591	34.606188
 157	2.5120e+000	1.8707	34.593211
 158	2.5280e+000	1.8827	34.661804
 159	2.5440e+000	1.8940	34.669220
 160	2.5600e+000	1.9077	34.652535
 161	2.5760e+000	1.9161	34.796210
 162	2.5920e+000	1.9312	34.738740
 163	2.6080e+000	1.9432	34.734105
 164	2.6240e+000	1.9530	34.891684
 165	2.6400e+000	1.9685	34.726690
 166	2.6560e+000	1.9778	34.808260
 167	2.6720e+000	1.9906	34.820310
 168	2.6880e+000	2.0026	34.887976
 169	2.7040e+000	2.0157	34.823091
 170	2.7200e+000	2.0280	34.870364
 171	2.7360e+000	2.0398	34.955642
 172	2.7520e+000	2.0514	34.960277
 173	2.7680e+000	2.0621	34.680343
 174	2.7840e+000	2.0741	34.935250
 175	2.8000e+000	2.0882	34.968620
 176	2.8160e+000	2.0985	35.044628
 177	2.8320e+000	2.1107	35.034432
 178	2.8480e+000	2.1238	35.016820
 179	2.8640e+000	2.1368	35.081706
 180	2.8800e+000	2.1473	35.236504
 181	2.8960e+000	2.1558	35.116002
 182	2.9120e+000	2.1706	35.141956
 183	2.9280e+000	2.1841	35.199426
 184	2.9440e+000	2.1969	35.279143
 185	2.9600e+000	2.2063	35.312512
 186	2.9760e+000	2.2170	35.372763
 187	2.9920e+000	2.2288	35.319928
 188	3.0080e+000	2.2437	35.372763
 189	3.0240e+000	2.2552	35.457114
 190	3.0400e+000	2.2681	35.419110
 191	3.0560e+000	2.2778	35.491411
 192	3.0720e+000	2.2915	35.433941
 193	3.0880e+000	2.3055	35.509950
 194	3.1040e+000	2.3141	35.439503
 195	3.1200e+000	2.3254	35.495119
 196	3.1360e+000	2.3403	35.518292
 197	3.1520e+000	2.3517	35.474726
 198	3.1680e+000	2.3639	35.572054
 199	3.1840e+000	2.3740	35.534977
 200	3.2000e+000	2.3891	35.598935
 201	3.2160e+000	2.3986	35.617474
 202	3.2320e+000	2.4133	35.591520
 203	3.2480e+000	2.4236	35.641574
 204	3.2640e+000	2.4326	35.658259
 205	3.2800e+000	2.4466	35.665675
 206	3.2960e+000	2.4601	35.648063
 207	3.3120e+000	2.4699	35.660113
 208	3.3280e+000	2.4828	35.669382
 209	3.3440e+000	2.4945	35.724072
 210	3.3600e+000	2.5072	35.725925
 211	3.3760e+000	2.5169	35.737976
 212	3.3920e+000	2.5320	35.779688
 213	3.4080e+000	2.5452	35.872381
 214	3.4240e+000	2.5546	35.822327
 215	3.4400e+000	2.5674	35.738902
 216	3.4560e+000	2.5809	35.858477
 217	3.4720e+000	2.5911	35.877016
 218	3.4880e+000	2.6024	35.898335
 219	3.5040e+000	2.6163	35.870527
 220	3.5200e+000	2.6264	35.877943
 221	3.5360e+000	2.6382	35.997517
 222	3.5520e+000	2.6499	35.997517
 223	3.5680e+000	2.6624	36.035522
 224	3.5840e+000	2.6746	36.016983
 225	3.6000e+000	2.6859	35.865893
 226	3.6160e+000	2.6983	36.203297
 227	3.6320e+000	2.7112	36.049426
 228	3.6480e+000	2.7251	36.094845
 229	3.6640e+000	2.7350	36.085576
 230	3.6800e+000	2.7454	36.175489
 231	3.6960e+000	2.7603	36.322871
 232	3.7120e+000	2.7731	36.123580
 233	3.7280e+000	2.7859	36.137485
 234	3.7440e+000	2.7950	36.352533
 235	3.7600e+000	2.8084	36.303406
 236	3.7760e+000	2.8199	36.331214
 237	3.7920e+000	2.8323	36.261694
 238	3.8080e+000	2.8428	36.301552
 239	3.8240e+000	2.8540	36.333995
 240	3.8400e+000	2.8670	36.286721
 241	3.8560e+000	2.8761	36.449862
 242	3.8720e+000	2.8888	36.324725
 243	3.8880e+000	2.9044	36.413711
 244	3.9040e+000	2.9165	36.530505
 245	3.9200e+000	2.9269	36.351606
 246	3.9360e+000	2.9397	36.453569
 247	3.9520e+000	2.9486	36.416492
 248	3.9680e+000	2.9630	36.424834
 249	3.9840e+000	2.9752	36.459131
 250	4.0000e+000	2.9879	36.514747
 251	4.0160e+000	2.9997	36.498062
 252	4.0320e+000	2.9881	36.439665
 253	4.0480e+000	2.9751	36.460058
 254	4.0640e+000	2.9638	36.526797
 255	4.0800e+000	2.9507	36.502697
 256	4.0960e+000	2.9382	36.434104
 257	4.1120e+000	2.9274	36.389611
 258	4.1280e+000	2.9151	36.314529
 259	4.1440e+000	2.9044	36.275598
 260	4.1600e+000	2.8876	36.314529
 261	4.1760e+000	2.8800	36.355314
 262	4.1920e+000	2.8679	36.333068
 263	4.2080e+000	2.8540	36.359022
 264	4.2240e+000	2.8436	36.347899
 265	4.2400e+000	2.8295	36.194954
 266	4.2560e+000	2.8155	36.343264
 267	4.2720e+000	2.8066	36.358095
 268	4.2880e+000	2.7956	36.243155
 269	4.3040e+000	2.7839	36.246863
 270	4.3200e+000	2.7713	36.239447
 271	4.3360e+000	2.7620	36.155096
 272	4.3520e+000	2.7480	36.041083
 273	4.3680e+000	2.7348	36.212566
 274	4.3840e+000	2.7231	36.195881
 275	4.4000e+000	2.7123	36.231105
 276	4.4160e+000	2.7000	36.202370
 277	4.4320e+000	2.6859	36.078161
 278	4.4480e+000	2.6742	36.190320
 279	4.4640e+000	2.6617	36.349753
 280	4.4800e+000	2.6505	36.186612
 281	4.4960e+000	2.6386	36.115238
 282	4.5120e+000	2.6276	36.080941
 283	4.5280e+000	2.6137	36.110603
 284	4.5440e+000	2.6023	36.086503
 285	4.5600e+000	2.5919	36.057768
 286	4.5760e+000	2.5820	36.147681
 287	4.5920e+000	2.5690	36.057768
 288	4.6080e+000	2.5542	36.204224
 289	4.6240e+000	2.5432	36.003079
 290	4.6400e+000	2.5307	35.908532
 291	4.6560e+000	2.5195	35.976198
 292	4.6720e+000	2.5089	35.955805
 293	4.6880e+000	2.4963	35.996590
 294	4.7040e+000	2.4817	36.031814
 295	4.7200e+000	2.4704	35.858477
 296	4.7360e+000	2.4588	35.793592
 297	4.7520e+000	2.4477	35.797299
 298	4.7680e+000	2.4340	35.728706
 299	4.7840e+000	2.4227	35.830669
 300	4.8000e+000	2.4067	35.850135
 301	4.8160e+000	2.3981	35.809350
 302	4.8320e+000	2.3883	35.786176
 303	4.8480e+000	2.3750	35.757441
 304	4.8640e+000	2.3640	35.690702
 305	4.8800e+000	2.3511	35.740756
 306	4.8960e+000	2.3398	35.706460
 307	4.9120e+000	2.3275	35.647136
 308	4.9280e+000	2.3167	35.663821
 309	4.9440e+000	2.3022	35.645282
 310	4.9600e+000	2.2909	35.598935
 311	4.9760e+000	2.2788	35.655478
 312	4.9920e+000	2.2682	35.637867
 313	5.0080e+000	2.2571	35.632305
 314	5.0240e+000	2.2415	35.572054
 315	5.0400e+000	2.2317	35.802861
 316	5.0560e+000	2.2211	35.603570
 317	5.0720e+000	2.2068	35.533123
 318	5.0880e+000	2.1969	35.557223
 319	5.1040e+000	2.1838	35.606351
 320	5.1200e+000	2.1708	35.482142
 321	5.1360e+000	2.1589	35.501607
 322	5.1520e+000	2.1474	35.464530
 323	5.1680e+000	2.1344	35.506242
 324	5.1840e+000	2.1218	35.515511
 325	5.2000e+000	2.1088	35.544246
 326	5.2160e+000	2.1009	35.489557
 327	5.2320e+000	2.0869	35.384813
 328	5.2480e+000	2.0765	35.458041
 329	5.2640e+000	2.0618	35.316220
 330	5.2800e+000	2.0494	35.365348
 331	5.2960e+000	2.0391	35.422818
 332	5.3120e+000	2.0266	35.336613
 333	5.3280e+000	2.0174	35.276362
 334	5.3440e+000	2.0025	35.279143
 335	5.3600e+000	1.9942	35.343101
 336	5.3760e+000	1.9778	35.241138
 337	5.3920e+000	1.9662	35.254116
 338	5.4080e+000	1.9570	35.305097
 339	5.4240e+000	1.9413	35.198499
 340	5.4400e+000	1.9323	35.090975
 341	5.4560e+000	1.9198	35.155860
 342	5.4720e+000	1.9064	35.166057
 343	5.4880e+000	1.8954	35.053898
 344	5.5040e+000	1.8844	35.181815
 345	5.5200e+000	1.8703	35.094683
 346	5.5360e+000	1.8594	35.083560
 347	5.5520e+000	1.8438	35.041847
 348	5.5680e+000	1.8337	35.060386
 349	5.5840e+000	1.8230	34.991793
 350	5.6000e+000	1.8089	34.938031
 351	5.6160e+000	1.7979	35.046482
 352	5.6320e+000	1.7882	34.980670
 353	5.6480e+000	1.7742	34.916711
 354	5.6640e+000	1.7625	34.904661
 355	5.6800e+000	1.7511	35.001062
 356	5.6960e+000	1.7398	34.962131
 357	5.7120e+000	1.7253	34.909296
 358	5.7280e+000	1.7126	34.842556
 359	5.7440e+000	1.7035	34.804552
 360	5.7600e+000	1.6901	34.788794
 361	5.7760e+000	1.6786	34.693320
 362	5.7920e+000	1.6650	34.836995
 363	5.8080e+000	1.6547	34.878707
 364	5.8240e+000	1.6430	34.886122
 365	5.8400e+000	1.6302	34.798990
 366	5.8560e+000	1.6171	34.810114
 367	5.8720e+000	1.6104	34.778598
 368	5.8880e+000	1.5958	34.731324
 369	5.9040e+000	1.5832	34.688685
 370	5.9200e+000	1.5686	34.657169
 371	5.9360e+000	1.5586	34.659023
 372	5.9520e+000	1.5456	34.614530
 373	5.9680e+000	1.5337	34.662731
 374	5.9840e+000	1.5227	34.761913
 375	6.0000e+000	1.5089	34.608969
 376	6.0160e+000	1.4995	34.523691
 377	6.0320e+000	1.4842	34.465294
 378	6.0480e+000	1.4748	34.412459
 379	6.0640e+000	1.4614	34.376308
 380	6.0800e+000	1.4520	34.423582
 381	6.0960e+000	1.4412	34.500517
 382	6.1120e+000	1.4278	34.356843
 383	6.1280e+000	1.4156	34.390212
 384	6.1440e+000	1.4021	34.335523
 385	6.1600e+000	1.3905	34.151063
 386	6.1760e+000	1.3787	34.263222
 387	6.1920e+000	1.3665	34.275272
 388	6.2080e+000	1.3538	34.325327
 389	6.2240e+000	1.3424	34.269711
 390	6.2400e+000	1.3315	34.102862
 391	6.2560e+000	1.3185	34.087104
 392	6.2720e+000	1.3089	34.208533
 393	6.2880e+000	1.2937	34.257661
 394	6.3040e+000	1.2825	34.067639
 395	6.3200e+000	1.2693	34.207606
 396	6.3360e+000	1.2572	34.114913
 397	6.3520e+000	1.2475	34.084324
 398	6.3680e+000	1.2335	34.098228
 399	6.3840e+000	1.2211	34.069493
 400	6.4000e+000	1.2116	34.142721
 401	6.4160e+000	1.1980	34.151990
 402	6.4320e+000	1.1884	33.959187
 403	6.4480e+000	1.1760	34.049100
 404	6.4640e+000	1.1620	34.027781
 405	6.4800e+000	1.1486	34.020365
 406	6.4960e+000	1.1402	34.068566
 407	6.5120e+000	1.1277	33.948991
 408	6.5280e+000	1.1150	33.896156
 409	6.5440e+000	1.1037	33.868348
 410	6.5600e+000	1.0906	33.878544
 411	6.5760e+000	1.0784	33.840540
 412	6.5920e+000	1.0692	33.870202
 413	6.6080e+000	1.0550	33.828490
 414	6.6240e+000	1.0455	33.867421
 415	6.6400e+000	1.0295	33.737650
 416	6.6560e+000	1.0197	33.774727
 417	6.6720e+000	1.0055	33.692230
 418	6.6880e+000	0.9927	33.657934
 419	6.7040e+000	0.9833	33.677399
 420	6.7200e+000	0.9723	33.544848
 421	6.7360e+000	0.9599	33.644030
 422	6.7520e+000	0.9439	33.595829
 423	6.7680e+000	0.9338	33.467912
 424	6.7840e+000	0.9254	33.486451
 425	6.8000e+000	0.9097	33.412296
 426	6.8160e+000	0.8990	33.515186
 427	6.8320e+000	0.8877	33.393757
 428	6.8480e+000	0.8755	33.353899
 429	6.8640e+000	0.8630	33.251009
 430	6.8800e+000	0.8538	33.293648
 431	6.8960e+000	0.8381	33.372438
 432	6.9120e+000	0.8264	33.292721
 433	6.9280e+000	0.8127	33.270475
 434	6.9440e+000	0.8020	33.215786
 435	6.9600e+000	0.7905	33.182416
 436	6.9760e+000	0.7790	33.190758
 437	6.9920e+000	0.7668	33.204662
 438	7.0080e+000	0.7545	33.188905
 439	7.0240e+000	0.7415	33.106407
 440	7.0400e+000	0.7303	33.098065
 441	7.0560e+000	0.7206	33.298283
 442	7.0720e+000	0.7081	33.058207
 443	7.0880e+000	0.6939	33.091576
 444	7.1040e+000	0.6820	33.058207
 445	7.1200e+000	0.6706	33.036887
 446	7.1360e+000	0.6578	33.021129
 447	7.1520e+000	0.6475	32.884870
 448	7.1680e+000	0.6329	32.877454
 449	7.1840e+000	0.6229	32.853354
 450	7.2000e+000	0.6112	32.778272
 451	7.2160e+000	0.5959	32.837596
 452	7.2320e+000	0.5854	32.743049
 453	7.2480e+000	0.5743	32.644794
 454	7.2640e+000	0.5614	32.600301
 455	7.2800e+000	0.5535	32.672602
 456	7.2960e+000	0.5361	32.643867
 457	7.3120e+000	0.5263	32.531708
 458	7.3280e+000	0.5135	32.538196
 459	7.3440e+000	0.5032	32.449210
 460	7.3600e+000	0.4916	32.381544
 461	7.3760e+000	0.4783	32.376910
 462	7.3920e+000	0.4677	32.308316
 463	7.4080e+000	0.4562	32.308316
 464	7.4240e+000	0.4414	32.306463
 465	7.4400e+000	0.4299	32.160007
 466	7.4560e+000	0.4189	32.034871
 467	7.4720e+000	0.4057	32.060825
 468	7.4880e+000	0.3939	31.999647
 469	7.5040e+000	0.3839	32.007989
 470	7.5200e+000	0.3715	31.927346
 471	7.5360e+000	0.3587	31.885634
 472	7.5520e+000	0.3491	31.774402
 473	7.5680e+000	0.3347	31.654827
 474	7.5840e+000	0.3238	31.600138
 475	7.6000e+000	0.3120	31.667804
 476	7.6160e+000	0.2991	31.387870
 477	7.6320e+000	0.2855	31.367477
 478	7.6480e+000	0.2745	31.284980
 479	7.6640e+000	0.2619	31.069931
 480	7.6800e+000	0.2488	30.992996
 481	7.6960e+000	0.2371	30.835417
 482	7.7120e+000	0.2291	30.720477
 483	7.7280e+000	0.2146	30.637053
 484	7.7440e+000	0.2026	30.215297
 485	7.7600e+000	0.1915	30.356191
 486	7.7760e+000	0.1782	29.868624
 487	7.7920e+000	0.1663	29.649867
 488	7.8080e+000	0.1564	29.447795
 489	7.8240e+000	0.1401	28.993597
 490	7.8400e+000	0.1324	28.671951
 491	7.8560e+000	0.1176	28.223314
 492	7.8720e+000	0.1047	27.715354
 493	7.8880e+000	0.0937	27.336238
 494	7.9040e+000	0.0808	26.537220
 495	7.9200e+000	0.0698	26.089510
 496	7.9360e+000	0.0613	25.560230
 497	7.9520e+000	0.0462	24.808486
 498	7.9680e+000	0.0343	24.060450
 499	7.9840e+000	0.0225	23.259578
 500	8.0000e+000	0.0089	22.495783
 501	8.0160e+000	-0.0009	21.711596
 502	8.0320e+000	-0.0123	20.718849
 503	8.0480e+000	-0.0236	20.195131
 504	8.0640e+000	-0.0358	18.971577
 505	8.0800e+000	-0.0494	18.026103
 506	8.0960e+000	-0.0599	17.156638
 507	8.1120e+000	-0.0723	16.104567
 508	8.1280e+000	-0.0854	15.236956
 509	8.1440e+000	-0.0962	14.300752
 510	8.1600e+000	-0.1087	13.354351
 511	8.1760e+000	-0.1205	12.471909
 512	8.1920e+000	-0.1305	11.177908
 513	8.2080e+000	-0.1453	10.619893
 514	8.2240e+000	-0.1565	9.726328
 515	8.2400e+000	-0.1703	8.772512
 516	8.2560e+000	-0.1820	8.021695
 517	8.2720e+000	-0.1923	7.192088
 518	8.2880e+000	-0.2051	6.370824
 519	8.3040e+000	-0.2171	5.521751
 520	8.3200e+000	-0.2287	4.744053
 521	8.3360e+000	-0.2413	4.007140
 522	8.3520e+000	-0.2515	3.170117
 523	8.3680e+000	-0.2654	2.397981
 524	8.3840e+000	-0.2775	1.645309
 525	8.4000e+000	-0.2888	1.001090
 526	8.4160e+000	-0.3020	0.319793
 527	8.4320e+000	-0.3127	-0.367993
 528	8.4480e+000	-0.3248	-0.984405
 529	8.4640e+000	-0.3393	-1.647163
 530	8.4800e+000	-0.3511	-2.318264
 531	8.4960e+000	-0.3588	-2.945799
 532	8.5120e+000	-0.3746	-3.639146
 533	8.5280e+000	-0.3843	-4.148034
 534	8.5440e+000	-0.3957	-4.723660
 535	8.5600e+000	-0.4086	-5.283529
 536	8.5760e+000	-0.4212	-5.770170
 537	8.5920e+000	-0.4323	-6.259591
 538	8.6080e+000	-0.4437	-6.888053
 539	8.6240e+000	-0.4578	-7.357082
 540	8.6400e+000	-0.4684	-7.862262
 541	8.6560e+000	-0.4809	-8.311825
 542	8.6720e+000	-0.4941	-8.913406
 543	8.6880e+000	-0.5032	-9.306427
