»»»»»»»»»»»»»»»»»»»»»»»»»»»»»»»»»»»» Hysteresis ««««««««««««««««««««««««««««««««««««
»»»  Executed Version:	5.12.0
»»»  Vision Version:	5.12.5 (R)
»»»  Vision Compiled:	2/24/17
»»»  Driver Version:	5.12.4
»»»  Windows Version:	Windows 7
»»»  Processor Information:	x86 (AMD or Intel) - 2 Processors
»»»  Tester Name:	PMF0910-256
»»»  Tester S/N:	PMF0910-256
»»»  Internal Amp Type:	 RTI 100V      
»»»  Internal Amp S/N:	 iAB1-0000     
»»»  Execution Count:	1
»»»»»»»»»»»»»»»»»»»»»»»»»»»»»»»»»»»»»»»»»»««««««««««««««««««««««««««««««««««««««««««

Stored:	6/27/2017 - 9:24:22
Configured:	06/24/17 10:58:24 AM
Executed:	06/27/17 09:23:40 AM

»»»»»»»»»»»»»»»»»»»»»»»»»»»»»»»»»»» Sample Info ««««««««««««««««««««««««««««««««««««
Sample Name:	
Lot Name:	
Wafer Name:	
Die Row/Column:	0/0
Capacitor Number:	0
Sample Area (cm2):	1.96e-005
Sample Thickness (µm):	1.00e-001

Mux Loop Adjustment:	Disabled

Amplifier:	Internal

»»»»»»»»»»»»»»»»»»»»»»»»»»»»»»»»»»» Tester Info «««««««««««««««««««««««««««««««««««
Tester Name:	PMF0910-256
Tester Serial Number:	PMF0910-256
Return Signal Amp. Level:	1.79 [Index: 2]

»»»»»»»»»»»»»»»»»»»»»»»»»»»»»»»» Hysteresis Info ««««««««««««««««««««««««««««««««««
Task Name:	 
Volts:	4.00
Field:	400.00 (kV/cm)
Hysteresis Period (ms):	2.00e+000
Preset:	Enabled
Preset Delay (ms):	1.00e+003
Profile:	Double Bipolar

»»»»»»»»»»»»»»»»»»»»»»»»»»»»»»»»»»»»»» Data «««««««««««««««««««««««««««««««««««««««
Points:	2001

Valid Data

Point	Time (ms)	Field (kV/cm)	Measured Polarization
   1	1.0000e-003	-0.167847	-24.157803
   2	2.0000e-003	1.739502	-24.134130
   3	3.0000e-003	3.219604	-24.048044
   4	4.0000e-003	4.699707	-23.953350
   5	5.0000e-003	6.507874	-23.862960
   6	6.0000e-003	7.934570	-23.785483
   7	7.0000e-003	9.452820	-23.660658
   8	8.0000e-003	11.070251	-23.486335
   9	9.0000e-003	12.779236	-23.299099
  10	1.0000e-002	14.045715	-23.120471
  11	1.1000e-002	16.136169	-22.905256
  12	1.2000e-002	17.425537	-22.707259
  13	1.3000e-002	19.134521	-22.504958
  14	1.4000e-002	20.645142	-22.240244
  15	1.5000e-002	22.148132	-22.005661
  16	1.6000e-002	23.994446	-21.704361
  17	1.7000e-002	25.527954	-21.480538
  18	1.8000e-002	27.091980	-21.162021
  19	1.9000e-002	28.701782	-20.910220
  20	2.0000e-002	30.471802	-20.602464
  21	2.1000e-002	31.822205	-20.354967
  22	2.2000e-002	33.828735	-20.029994
  23	2.3000e-002	35.057068	-19.748063
  24	2.4000e-002	36.758423	-19.427394
  25	2.5000e-002	38.177490	-19.119637
  26	2.6000e-002	40.107727	-18.807576
  27	2.7000e-002	41.473389	-18.495516
  28	2.8000e-002	43.113708	-18.241563
  29	2.9000e-002	44.769287	-17.923046
  30	3.0000e-002	46.318054	-17.608833
  31	3.1000e-002	47.927856	-17.273099
  32	3.2000e-002	49.575806	-16.945973
  33	3.3000e-002	51.078796	-16.640369
  34	3.4000e-002	52.673340	-16.330460
  35	3.5000e-002	54.229736	-16.082964
  36	3.6000e-002	55.831909	-15.702034
  37	3.7000e-002	57.601929	-15.366300
  38	3.8000e-002	59.181213	-15.108043
  39	3.9000e-002	60.569763	-14.843329
  40	4.0000e-002	62.385559	-14.488226
  41	4.1000e-002	63.880920	-14.133122
  42	4.2000e-002	65.483093	-13.816757
  43	4.3000e-002	67.100525	-13.515457
  44	4.4000e-002	68.748474	-13.196940
  45	4.5000e-002	70.335388	-12.863358
  46	4.6000e-002	72.105408	-12.581427
  47	4.7000e-002	73.242188	-12.262910
  48	4.8000e-002	75.279236	-11.961610
  49	4.9000e-002	76.637268	-11.621571
  50	5.0000e-002	78.392029	-11.315967
  51	5.1000e-002	80.062866	-10.943646
  52	5.2000e-002	81.436157	-10.689694
  53	5.3000e-002	83.221436	-10.369024
  54	5.4000e-002	84.785461	-10.078485
  55	5.5000e-002	86.479187	-9.792250
  56	5.6000e-002	87.913513	-9.460820
  57	5.7000e-002	89.385986	-9.157368
  58	5.8000e-002	91.232300	-8.830242
  59	5.9000e-002	92.750549	-8.500964
  60	6.0000e-002	94.322205	-8.141556
  61	6.1000e-002	96.008301	-7.833800
  62	6.2000e-002	97.473145	-7.498066
  63	6.3000e-002	99.235535	-7.147266
  64	6.4000e-002	100.532532	-6.813684
  65	6.5000e-002	102.470398	-6.488711
  66	6.6000e-002	103.965759	-6.140064
  67	6.7000e-002	105.484009	-5.821546
  68	6.8000e-002	107.269287	-5.483660
  69	6.9000e-002	109.054565	-5.117796
  70	7.0000e-002	110.305786	-4.784214
  71	7.1000e-002	111.900330	-4.362394
  72	7.2000e-002	113.777161	-4.033116
  73	7.3000e-002	114.990234	-3.647882
  74	7.4000e-002	116.706848	-3.269105
  75	7.5000e-002	118.438721	-2.937675
  76	7.6000e-002	119.903564	-2.528768
  77	7.7000e-002	121.711731	-2.113404
  78	7.8000e-002	123.329163	-1.741084
  79	7.9000e-002	124.740601	-1.293438
  80	8.0000e-002	126.228333	-0.835031
  81	8.1000e-002	127.929688	-0.443341
  82	8.2000e-002	129.585266	0.064564
  83	8.3000e-002	131.256104	0.531579
  84	8.4000e-002	132.568359	1.007203
  85	8.5000e-002	134.490967	1.472066
  86	8.6000e-002	135.902405	2.048840
  87	8.7000e-002	137.474060	2.573963
  88	8.8000e-002	139.122009	3.174411
  89	8.9000e-002	140.502930	3.888922
  90	9.0000e-002	142.395020	4.508739
  91	9.1000e-002	143.959045	5.190969
  92	9.2000e-002	145.500183	5.987261
  93	9.3000e-002	147.186279	6.727599
  94	9.4000e-002	148.880005	7.648716
  95	9.5000e-002	150.398254	8.552616
  96	9.6000e-002	151.679993	9.553362
  97	9.7000e-002	153.518677	10.620825
  98	9.8000e-002	155.174255	11.782982
  99	9.9000e-002	156.898499	12.970965
 100	1.0000e-001	158.393860	14.311750
 101	1.0100e-001	159.812927	15.760142
 102	1.0200e-001	161.506653	17.242969
 103	1.0300e-001	163.276672	18.732251
 104	1.0400e-001	164.733887	20.367880
 105	1.0500e-001	166.595459	22.111116
 106	1.0600e-001	167.701721	23.796243
 107	1.0700e-001	169.395447	25.588978
 108	1.0800e-001	171.302795	27.308541
 109	1.0900e-001	172.706604	29.041016
 110	1.1000e-001	174.362183	30.747665
 111	1.1100e-001	175.804138	32.318729
 112	1.1200e-001	177.719116	33.795099
 113	1.1300e-001	179.214478	35.067016
 114	1.1400e-001	180.816650	36.162456
 115	1.1500e-001	182.395935	37.161051
 116	1.1600e-001	183.921814	37.901388
 117	1.1700e-001	185.890198	38.493227
 118	1.1800e-001	187.385559	39.020502
 119	1.1900e-001	188.568115	39.534864
 120	1.2000e-001	190.307617	39.881359
 121	1.2100e-001	191.841125	40.189116
 122	1.2200e-001	193.641663	40.455981
 123	1.2300e-001	195.129395	40.662587
 124	1.2400e-001	196.929932	40.903627
 125	1.2500e-001	198.295593	41.086559
 126	1.2600e-001	199.981689	41.213536
 127	1.2700e-001	201.522827	41.353425
 128	1.2800e-001	203.254700	41.452423
 129	1.2900e-001	204.887390	41.564335
 130	1.3000e-001	206.626892	41.691311
 131	1.3100e-001	208.099365	41.742963
 132	1.3200e-001	209.541321	41.872091
 133	1.3300e-001	210.998535	41.958177
 134	1.3400e-001	212.921143	42.020589
 135	1.3500e-001	214.530945	42.089458
 136	1.3600e-001	216.033936	42.218586
 137	1.3700e-001	217.720032	42.255173
 138	1.3800e-001	219.390869	42.341258
 139	1.3900e-001	220.642090	42.423040
 140	1.4000e-001	222.328186	42.392910
 141	1.4100e-001	223.968506	42.500517
 142	1.4200e-001	225.433350	42.552168
 143	1.4300e-001	227.088928	42.633950
 144	1.4400e-001	228.675842	42.698514
 145	1.4500e-001	230.354309	42.767383
 146	1.4600e-001	231.819153	42.803969
 147	1.4700e-001	233.688354	42.849164
 148	1.4800e-001	235.237122	42.881446
 149	1.4900e-001	236.671448	42.935250
 150	1.5000e-001	238.548279	42.980445
 151	1.5100e-001	240.074158	43.001966
 152	1.5200e-001	241.683960	43.060074
 153	1.5300e-001	243.095398	43.083748
 154	1.5400e-001	244.888306	43.202116
 155	1.5500e-001	246.505737	43.195659
 156	1.5600e-001	248.153687	43.223637
 157	1.5700e-001	249.450684	43.288201
 158	1.5800e-001	251.289368	43.298962
 159	1.5900e-001	252.853394	43.456068
 160	1.6000e-001	254.554749	43.417330
 161	1.6100e-001	256.072998	43.503416
 162	1.6200e-001	257.667542	43.477590
 163	1.6300e-001	259.040833	43.546458
 164	1.6400e-001	260.589600	43.578741
 165	1.6500e-001	262.390137	43.628240
 166	1.6600e-001	264.015198	43.647609
 167	1.6700e-001	265.663147	43.694956
 168	1.6800e-001	267.250061	43.755216
 169	1.6900e-001	268.829346	43.804716
 170	1.7000e-001	270.629883	43.905866
 171	1.7100e-001	272.125244	43.815476
 172	1.7200e-001	273.620605	43.901562
 173	1.7300e-001	275.199890	43.910171
 174	1.7400e-001	276.885986	44.022082
 175	1.7500e-001	278.602600	44.011321
 176	1.7600e-001	280.006409	44.028538
 177	1.7700e-001	281.639099	44.140450
 178	1.7800e-001	283.378601	44.133993
 179	1.7900e-001	284.957886	44.192101
 180	1.8000e-001	286.392212	44.187797
 181	1.8100e-001	288.131714	44.267426
 182	1.8200e-001	289.543152	44.243753
 183	1.8300e-001	291.107178	44.325534
 184	1.8400e-001	292.968750	44.323382
 185	1.8500e-001	294.609070	44.377186
 186	1.8600e-001	296.066284	44.439598
 187	1.8700e-001	297.714233	44.482641
 188	1.8800e-001	299.369812	44.491249
 189	1.8900e-001	300.834656	44.512771
 190	1.9000e-001	302.474976	44.601008
 191	1.9100e-001	304.092407	44.635443
 192	1.9200e-001	305.625916	44.663421
 193	1.9300e-001	307.167053	44.676333
 194	1.9400e-001	309.097290	44.747354
 195	1.9500e-001	310.516357	44.824831
 196	1.9600e-001	312.049866	44.788245
 197	1.9700e-001	313.987732	44.852809
 198	1.9800e-001	315.261841	44.863570
 199	1.9900e-001	316.787720	44.975481
 200	2.0000e-001	318.687439	44.938895
 201	2.0100e-001	320.129395	44.988394
 202	2.0200e-001	321.640015	44.994851
 203	2.0300e-001	323.135376	45.027133
 204	2.0400e-001	324.783325	45.074480
 205	2.0500e-001	326.622009	45.108914
 206	2.0600e-001	328.010559	45.177783
 207	2.0700e-001	330.039978	45.162718
 208	2.0800e-001	331.352234	45.233738
 209	2.0900e-001	332.824707	45.235891
 210	2.1000e-001	334.426880	45.319824
 211	2.1100e-001	336.059570	45.328433
 212	2.1200e-001	337.608337	45.367171
 213	2.1300e-001	339.370728	45.343498
 214	2.1400e-001	340.911865	45.459713
 215	2.1500e-001	342.384338	45.481235
 216	2.1600e-001	344.139099	45.485539
 217	2.1700e-001	345.535278	45.580233
 218	2.1800e-001	347.290039	45.539343
 219	2.1900e-001	348.915100	45.646950
 220	2.2000e-001	350.357056	45.621124
 221	2.2100e-001	352.012634	45.677080
 222	2.2200e-001	353.637695	45.756709
 223	2.2300e-001	355.682373	45.791143
 224	2.2400e-001	356.842041	45.821273
 225	2.2500e-001	358.573914	45.844947
 226	2.2600e-001	359.886169	45.924576
 227	2.2700e-001	361.763000	45.915968
 228	2.2800e-001	363.357544	45.989141
 229	2.2900e-001	364.959717	45.995597
 230	2.3000e-001	366.523743	46.092443
 231	2.3100e-001	367.912292	46.040792
 232	2.3200e-001	369.857788	46.109661
 233	2.3300e-001	371.246338	46.131182
 234	2.3400e-001	372.825623	46.144095
 235	2.3500e-001	374.458313	46.212963
 236	2.3600e-001	376.365662	46.238789
 237	2.3700e-001	377.769470	46.311962
 238	2.3800e-001	379.348755	46.299049
 239	2.3900e-001	380.699158	46.365766
 240	2.4000e-001	382.476807	46.367918
 241	2.4100e-001	384.010315	46.441091
 242	2.4200e-001	385.917664	46.454003
 243	2.4300e-001	387.245178	46.499198
 244	2.4400e-001	388.870239	46.512111
 245	2.4500e-001	390.327454	46.563763
 246	2.4600e-001	392.097473	46.639088
 247	2.4700e-001	393.928528	46.688587
 248	2.4800e-001	395.164490	46.723021
 249	2.4900e-001	396.820068	46.772521
 250	2.5000e-001	398.529053	46.772521
 251	2.5100e-001	400.062561	46.815563
 252	2.5200e-001	398.551941	46.778977
 253	2.5300e-001	396.827698	46.783281
 254	2.5400e-001	395.301819	46.800498
 255	2.5500e-001	393.562317	46.787586
 256	2.5600e-001	392.242432	46.753151
 257	2.5700e-001	390.403748	46.766064
 258	2.5800e-001	388.633728	46.763912
 259	2.5900e-001	387.680054	46.794042
 260	2.6000e-001	385.650635	46.768216
 261	2.6100e-001	383.895874	46.714413
 262	2.6200e-001	382.415771	46.701500
 263	2.6300e-001	380.867004	46.660609
 264	2.6400e-001	379.333496	46.707956
 265	2.6500e-001	377.723694	46.671370
 266	2.6600e-001	376.243591	46.682131
 267	2.6700e-001	374.450684	46.660609
 268	2.6800e-001	372.947693	46.656305
 269	2.6900e-001	371.368408	46.634783
 270	2.7000e-001	369.895935	46.583132
 271	2.7100e-001	368.103027	46.589588
 272	2.7200e-001	366.241455	46.535785
 273	2.7300e-001	364.913940	46.578828
 274	2.7400e-001	363.403320	46.520720
 275	2.7500e-001	361.732483	46.503503
 276	2.7600e-001	360.183716	46.505655
 277	2.7700e-001	358.711243	46.514263
 278	2.7800e-001	356.819153	46.438938
 279	2.7900e-001	355.255127	46.488438
 280	2.8000e-001	353.820801	46.438938
 281	2.8100e-001	352.188110	46.432482
 282	2.8200e-001	350.624084	46.406656
 283	2.8300e-001	348.823547	46.361461
 284	2.8400e-001	347.114563	46.402352
 285	2.8500e-001	345.756531	46.385135
 286	2.8600e-001	344.001770	46.376526
 287	2.8700e-001	342.185974	46.322723
 288	2.8800e-001	340.988159	46.294745
 289	2.8900e-001	339.187622	46.294745
 290	2.9000e-001	337.814331	46.271071
 291	2.9100e-001	336.189270	46.262463
 292	2.9200e-001	334.320068	46.215116
 293	2.9300e-001	332.824707	46.243093
 294	2.9400e-001	331.260681	46.159160
 295	2.9500e-001	329.841614	46.157008
 296	2.9600e-001	328.186035	46.103204
 297	2.9700e-001	326.568604	46.122573
 298	2.9800e-001	324.661255	46.129030
 299	2.9900e-001	323.463440	46.077378
 300	3.0000e-001	321.655273	46.025727
 301	3.0100e-001	320.075989	46.021423
 302	3.0200e-001	318.222046	45.999901
 303	3.0300e-001	316.658020	45.965467
 304	3.0400e-001	315.238953	45.984836
 305	3.0500e-001	313.537598	45.935337
 306	3.0600e-001	311.820984	45.943946
 307	3.0700e-001	310.363770	45.905207
 308	3.0800e-001	308.990479	45.855708
 309	3.0900e-001	307.159424	45.875077
 310	3.1000e-001	305.549622	45.825578
 311	3.1100e-001	304.031372	45.816969
 312	3.1200e-001	302.520752	45.786839
 313	3.1300e-001	300.712585	45.829882
 314	3.1400e-001	299.201965	45.724427
 315	3.1500e-001	297.714233	45.741644
 316	3.1600e-001	295.982361	45.748101
 317	3.1700e-001	294.433594	45.657711
 318	3.1800e-001	292.846680	45.677080
 319	3.1900e-001	290.962219	45.730883
 320	3.2000e-001	289.505005	45.623276
 321	3.2100e-001	287.994385	45.522126
 322	3.2200e-001	286.369324	45.599603
 323	3.2300e-001	284.797668	45.550103
 324	3.2400e-001	283.271790	45.567321
 325	3.2500e-001	281.578064	45.513517
 326	3.2600e-001	279.983521	45.461866
 327	3.2700e-001	278.434753	45.502756
 328	3.2800e-001	276.924133	45.418823
 329	3.2900e-001	275.192261	45.397301
 330	3.3000e-001	273.635864	45.401606
 331	3.3100e-001	272.224426	45.352106
 332	3.3200e-001	270.530701	45.311216
 333	3.3300e-001	268.730164	45.321976
 334	3.3400e-001	267.250061	45.315520
 335	3.3500e-001	265.670776	45.261716
 336	3.3600e-001	263.916016	45.248803
 337	3.3700e-001	262.626648	45.227282
 338	3.3800e-001	260.986328	45.225130
 339	3.3900e-001	259.323120	45.115371
 340	3.4000e-001	257.766724	45.136892
 341	3.4100e-001	256.134033	45.102458
 342	3.4200e-001	254.302979	45.160566
 343	3.4300e-001	252.845764	45.078784
 344	3.4400e-001	251.350403	45.059415
 345	3.4500e-001	249.519348	45.035741
 346	3.4600e-001	247.993469	45.035741
 347	3.4700e-001	246.284485	44.988394
 348	3.4800e-001	244.827271	44.958264
 349	3.4900e-001	243.019104	44.915221
 350	3.5000e-001	241.561890	44.859266
 351	3.5100e-001	240.081787	44.902308
 352	3.5200e-001	238.449097	44.852809
 353	3.5300e-001	236.732483	44.818375
 354	3.5400e-001	235.137939	44.824831
 355	3.5500e-001	233.520508	44.790397
 356	3.5600e-001	232.406616	44.788245
 357	3.5700e-001	230.308533	44.771028
 358	3.5800e-001	228.843689	44.648356
 359	3.5900e-001	227.111816	44.704311
 360	3.6000e-001	225.585938	44.680638
 361	3.6100e-001	223.937988	44.641899
 362	3.6200e-001	222.267151	44.598856
 363	3.6300e-001	220.848083	44.596704
 364	3.6400e-001	219.314575	44.583791
 365	3.6500e-001	217.582703	44.549357
 366	3.6600e-001	216.033936	44.512771
 367	3.6700e-001	214.492798	44.523531
 368	3.6800e-001	212.814331	44.446054
 369	3.6900e-001	211.006165	44.456815
 370	3.7000e-001	209.548950	44.409468
 371	3.7100e-001	208.198547	44.370729
 372	3.7200e-001	206.336975	44.359968
 373	3.7300e-001	205.047607	44.340599
 374	3.7400e-001	203.269958	44.299708
 375	3.7500e-001	201.644897	44.308317
 376	3.7600e-001	199.951172	44.278187
 377	3.7700e-001	198.333740	44.267426
 378	3.7800e-001	196.556091	44.179188
 379	3.7900e-001	194.976807	44.181341
 380	3.8000e-001	193.634033	44.196406
 381	3.8100e-001	192.031860	44.112472
 382	3.8200e-001	190.704346	44.095255
 383	3.8300e-001	188.819885	44.099559
 384	3.8400e-001	187.072754	44.054364
 385	3.8500e-001	185.508728	44.002713
 386	3.8600e-001	184.097290	44.060821
 387	3.8700e-001	182.319641	44.026386
 388	3.8800e-001	180.732727	43.963974
 389	3.8900e-001	179.054260	43.955366
 390	3.9000e-001	177.703857	43.888649
 391	3.9100e-001	175.979614	43.856367
 392	3.9200e-001	174.324036	43.830541
 393	3.9300e-001	172.790527	43.824085
 394	3.9400e-001	171.325684	43.787498
 395	3.9500e-001	169.548035	43.746608
 396	3.9600e-001	168.060303	43.725086
 397	3.9700e-001	166.427612	43.690652
 398	3.9800e-001	164.733887	43.658370
 399	3.9900e-001	163.070679	43.654066
 400	4.0000e-001	161.476135	43.626088
 401	4.0100e-001	159.828186	43.589501
 402	4.0200e-001	158.386230	43.550763
 403	4.0300e-001	156.661987	43.492655
 404	4.0400e-001	155.212402	43.527089
 405	4.0500e-001	153.625488	43.462525
 406	4.0600e-001	151.893616	43.436699
 407	4.0700e-001	150.360107	43.430243
 408	4.0800e-001	148.727417	43.369983
 409	4.0900e-001	147.026062	43.385048
 410	4.1000e-001	145.805359	43.331244
 411	4.1100e-001	143.920898	43.270984
 412	4.1200e-001	142.326355	43.266680
 413	4.1300e-001	140.655518	43.208572
 414	4.1400e-001	139.236450	43.210724
 415	4.1500e-001	137.489319	43.169833
 416	4.1600e-001	135.932922	43.128943
 417	4.1700e-001	134.338379	43.116030
 418	4.1800e-001	133.117676	43.128943
 419	4.1900e-001	131.034851	43.042857
 420	4.2000e-001	129.547119	42.989053
 421	4.2100e-001	127.876282	42.971836
 422	4.2200e-001	126.304626	42.965380
 423	4.2300e-001	124.946594	42.885751
 424	4.2400e-001	123.344421	42.883598
 425	4.2500e-001	121.414185	42.838403
 426	4.2600e-001	119.918823	42.831947
 427	4.2700e-001	118.438721	42.780296
 428	4.2800e-001	116.706848	42.743709
 429	4.2900e-001	115.005493	42.683449
 430	4.3000e-001	113.624573	42.627493
 431	4.3100e-001	111.953735	42.627493
 432	4.3200e-001	110.214233	42.577994
 433	4.3300e-001	108.787537	42.629646
 434	4.3400e-001	107.162476	42.513430
 435	4.3500e-001	105.888367	42.500517
 436	4.3600e-001	103.889465	42.459626
 437	4.3700e-001	102.287292	42.425192
 438	4.3800e-001	100.624084	42.369236
 439	4.3900e-001	98.960876	42.328346
 440	4.4000e-001	97.618103	42.291759
 441	4.4100e-001	96.145630	42.229347
 442	4.4200e-001	94.245911	42.197065
 443	4.4300e-001	92.788696	42.126044
 444	4.4400e-001	91.094971	42.158326
 445	4.4500e-001	89.569092	42.083001
 446	4.4600e-001	87.776184	42.046415
 447	4.4700e-001	86.555481	41.981851
 448	4.4800e-001	84.800720	41.956025
 449	4.4900e-001	82.969666	41.897917
 450	4.5000e-001	81.390381	41.867787
 451	4.5100e-001	80.032349	41.818288
 452	4.5200e-001	78.292847	41.682703
 453	4.5300e-001	76.766968	41.751571
 454	4.5400e-001	75.134277	41.669790
 455	4.5500e-001	73.539734	41.639660
 456	4.5600e-001	71.716309	41.512683
 457	4.5700e-001	70.472717	41.484706
 458	4.5800e-001	68.611145	41.413685
 459	4.5900e-001	67.031860	41.359881
 460	4.6000e-001	65.574646	41.331903
 461	4.6100e-001	63.850403	41.267339
 462	4.6200e-001	62.248230	41.198471
 463	4.6300e-001	60.821533	41.120993
 464	4.6400e-001	59.188843	41.071494
 465	4.6500e-001	57.640076	40.940213
 466	4.6600e-001	55.824280	40.892866
 467	4.6700e-001	54.359436	40.796020
 468	4.6800e-001	52.886963	40.688413
 469	4.6900e-001	50.819397	40.664739
 470	4.7000e-001	49.621582	40.533458
 471	4.7100e-001	47.920227	40.455981
 472	4.7200e-001	46.325684	40.337613
 473	4.7300e-001	44.326782	40.279506
 474	4.7400e-001	43.014526	40.143921
 475	4.7500e-001	41.564941	40.038466
 476	4.7600e-001	39.901733	39.913641
 477	4.7700e-001	38.208008	39.775904
 478	4.7800e-001	36.689758	39.640319
 479	4.7900e-001	35.140991	39.502582
 480	4.8000e-001	33.531189	39.397127
 481	4.8100e-001	31.890869	39.240021
 482	4.8200e-001	30.387878	39.095827
 483	4.8300e-001	28.602600	38.846178
 484	4.8400e-001	27.328491	38.740723
 485	4.8500e-001	25.634766	38.495379
 486	4.8600e-001	23.895264	38.342577
 487	4.8700e-001	22.262573	38.155341
 488	4.8800e-001	20.805359	37.897083
