»»»»»»»»»»»»»»»»»»»»»»»»»»»»»»»»»»»» Hysteresis ««««««««««««««««««««««««««««««««««««
»»»  Executed Version:	5.12.0
»»»  Vision Version:	5.12.5 (R)
»»»  Vision Compiled:	2/24/17
»»»  Driver Version:	5.12.4
»»»  Windows Version:	Windows 7
»»»  Processor Information:	x86 (AMD or Intel) - 2 Processors
»»»  Tester Name:	PMF0910-256
»»»  Tester S/N:	PMF0910-256
»»»  Internal Amp Type:	 RTI 100V      
»»»  Internal Amp S/N:	 iAB1-0000     
»»»  Execution Count:	1
»»»»»»»»»»»»»»»»»»»»»»»»»»»»»»»»»»»»»»»»»»««««««««««««««««««««««««««««««««««««««««««

Stored:	8/3/2017 - 10:48:43
Configured:	08/03/17 10:04:09 AM
Executed:	08/03/17 10:48:26 AM

»»»»»»»»»»»»»»»»»»»»»»»»»»»»»»»»»»» Sample Info ««««««««««««««««««««««««««««««««««««
Sample Name:	
Lot Name:	
Wafer Name:	
Die Row/Column:	0/0
Capacitor Number:	0
Sample Area (cm2):	4.91e-006
Sample Thickness (µm):	1.00e-001

Mux Loop Adjustment:	Disabled

Amplifier:	Internal

»»»»»»»»»»»»»»»»»»»»»»»»»»»»»»»»»»» Tester Info «««««««««««««««««««««««««««««««««««
Tester Name:	PMF0910-256
Tester Serial Number:	PMF0910-256
Return Signal Amp. Level:	16.67 [Index: 1]

»»»»»»»»»»»»»»»»»»»»»»»»»»»»»»»» Hysteresis Info ««««««««««««««««««««««««««««««««««
Task Name:	Hyst-1
Volts:	3.00
Field:	300.00 (kV/cm)
Hysteresis Period (ms):	4.00e+000
Preset:	Enabled
Preset Delay (ms):	1.00e+003
Profile:	Double Bipolar

»»»»»»»»»»»»»»»»»»»»»»»»»»»»»»»»»»»»»» Data «««««««««««««««««««««««««««««««««««««««
Points:	2001

Valid Data

Point	Time (ms)	Drive Voltage	Measured Polarization
   1	2.0000e-003	-0.0026	-9.812996
   2	4.0000e-003	0.0107	-9.642440
   3	6.0000e-003	0.0235	-9.647075
   4	8.0000e-003	0.0316	-9.609071
   5	1.0000e-002	0.0481	-9.600728
   6	1.2000e-002	0.0567	-9.436661
   7	1.4000e-002	0.0700	-9.437588
   8	1.6000e-002	0.0848	-9.282790
   9	1.8000e-002	0.0961	-9.068668
  10	2.0000e-002	0.1073	-8.815614
  11	2.2000e-002	0.1177	-8.621885
  12	2.4000e-002	0.1321	-8.307654
  13	2.6000e-002	0.1402	-8.017524
  14	2.8000e-002	0.1563	-7.764470
  15	3.0000e-002	0.1678	-7.474340
  16	3.2000e-002	0.1757	-7.110054
  17	3.4000e-002	0.1894	-6.654002
  18	3.6000e-002	0.2020	-6.269324
  19	3.8000e-002	0.2142	-5.892989
  20	4.0000e-002	0.2267	-5.470306
  21	4.2000e-002	0.2384	-5.072651
  22	4.4000e-002	0.2512	-4.687973
  23	4.6000e-002	0.2597	-4.224506
  24	4.8000e-002	0.2740	-3.752696
  25	5.0000e-002	0.2850	-3.309621
  26	5.2000e-002	0.2968	-2.867473
  27	5.4000e-002	0.3135	-2.369709
  28	5.6000e-002	0.3233	-1.814475
  29	5.8000e-002	0.3326	-1.330615
  30	6.0000e-002	0.3460	-0.894956
  31	6.2000e-002	0.3571	-0.379580
  32	6.4000e-002	0.3700	0.090376
  33	6.6000e-002	0.3817	0.587213
  34	6.8000e-002	0.3952	1.122055
  35	7.0000e-002	0.4066	1.649481
  36	7.2000e-002	0.4194	2.158368
  37	7.4000e-002	0.4310	2.670963
  38	7.6000e-002	0.4433	3.179850
  39	7.8000e-002	0.4544	3.669272
  40	8.0000e-002	0.4664	4.167036
  41	8.2000e-002	0.4781	4.708366
  42	8.4000e-002	0.4890	5.258038
  43	8.6000e-002	0.5031	5.665890
  44	8.8000e-002	0.5166	6.217416
  45	9.0000e-002	0.5260	6.731865
  46	9.2000e-002	0.5370	7.204602
  47	9.4000e-002	0.5485	7.710708
  48	9.6000e-002	0.5625	8.218668
  49	9.8000e-002	0.5723	8.778537
  50	1.0000e-001	0.5853	9.217904
  51	1.0200e-001	0.6001	9.700837
  52	1.0400e-001	0.6102	10.142985
  53	1.0600e-001	0.6229	10.615722
  54	1.0800e-001	0.6352	11.080116
  55	1.1000e-001	0.6443	11.618666
  56	1.1200e-001	0.6577	12.131261
  57	1.1400e-001	0.6706	12.548381
  58	1.1600e-001	0.6820	13.056342
  59	1.1800e-001	0.6963	13.442874
  60	1.2000e-001	0.7062	13.847017
  61	1.2200e-001	0.7190	14.172371
  62	1.2400e-001	0.7312	14.718336
  63	1.2600e-001	0.7410	15.196634
  64	1.2800e-001	0.7561	15.576678
  65	1.3000e-001	0.7677	16.015118
  66	1.3200e-001	0.7781	16.400723
  67	1.3400e-001	0.7923	16.932784
  68	1.3600e-001	0.8032	17.205302
  69	1.3800e-001	0.8161	17.683601
  70	1.4000e-001	0.8260	17.968170
  71	1.4200e-001	0.8382	18.580874
  72	1.4400e-001	0.8511	18.835781
  73	1.4600e-001	0.8640	19.288125
  74	1.4800e-001	0.8752	19.512443
  75	1.5000e-001	0.8897	19.987961
  76	1.5200e-001	0.8994	20.337415
  77	1.5400e-001	0.9109	20.824983
  78	1.5600e-001	0.9227	21.068767
  79	1.5800e-001	0.9339	21.511842
  80	1.6000e-001	0.9486	21.966967
  81	1.6200e-001	0.9579	22.347937
  82	1.6400e-001	0.9716	22.568548
  83	1.6600e-001	0.9805	23.009769
  84	1.6800e-001	0.9934	23.370346
  85	1.7000e-001	1.0076	23.722582
  86	1.7200e-001	1.0181	24.031251
  87	1.7400e-001	1.0310	24.443737
  88	1.7600e-001	1.0421	24.842319
  89	1.7800e-001	1.0544	25.269636
  90	1.8000e-001	1.0670	25.569963
  91	1.8200e-001	1.0795	25.979668
  92	1.8400e-001	1.0905	26.332830
  93	1.8600e-001	1.1021	26.611838
  94	1.8800e-001	1.1181	26.957585
  95	1.9000e-001	1.1256	27.300551
  96	1.9200e-001	1.1395	27.689863
  97	1.9400e-001	1.1499	28.085664
  98	1.9600e-001	1.1588	28.560255
  99	1.9800e-001	1.1740	28.811454
 100	2.0000e-001	1.1877	29.071923
 101	2.0200e-001	1.1992	29.451966
 102	2.0400e-001	1.2106	29.767124
 103	2.0600e-001	1.2225	30.136971
 104	2.0800e-001	1.2347	30.435444
 105	2.1000e-001	1.2477	30.744114
 106	2.1200e-001	1.2589	31.164015
 107	2.1400e-001	1.2705	31.323448
 108	2.1600e-001	1.2854	31.466196
 109	2.1800e-001	1.2920	31.722957
 110	2.2000e-001	1.3047	31.930590
 111	2.2200e-001	1.3227	32.061288
 112	2.2400e-001	1.3322	32.293022
 113	2.2600e-001	1.3427	32.432062
 114	2.2800e-001	1.3543	32.487678
 115	2.3000e-001	1.3673	32.603545
 116	2.3200e-001	1.3786	32.654527
 117	2.3400e-001	1.3902	32.888114
 118	2.3600e-001	1.4025	32.967831
 119	2.3800e-001	1.4141	32.946511
 120	2.4000e-001	1.4273	33.071647
 121	2.4200e-001	1.4404	33.111505
 122	2.4400e-001	1.4494	33.163414
 123	2.4600e-001	1.4625	33.206053
 124	2.4800e-001	1.4733	33.257034
 125	2.5000e-001	1.4878	33.284842
 126	2.5200e-001	1.4983	33.320066
 127	2.5400e-001	1.5088	33.454471
 128	2.5600e-001	1.5211	33.474864
 129	2.5800e-001	1.5352	33.474864
 130	2.6000e-001	1.5485	33.528626
 131	2.6200e-001	1.5597	33.624100
 132	2.6400e-001	1.5724	33.611123
 133	2.6600e-001	1.5829	33.680644
 134	2.6800e-001	1.5950	33.673228
 135	2.7000e-001	1.6048	33.800218
 136	2.7200e-001	1.6181	33.828953
 137	2.7400e-001	1.6294	33.815976
 138	2.7600e-001	1.6438	33.782606
 139	2.7800e-001	1.6542	33.848419
 140	2.8000e-001	1.6680	33.897546
 141	2.8200e-001	1.6798	33.992094
 142	2.8400e-001	1.6924	34.022683
 143	2.8600e-001	1.7007	33.993948
 144	2.8800e-001	1.7138	34.086641
 145	2.9000e-001	1.7267	34.138549
 146	2.9200e-001	1.7390	34.108887
 147	2.9400e-001	1.7548	34.119084
 148	2.9600e-001	1.7654	34.126499
 149	2.9800e-001	1.7753	34.160796
 150	3.0000e-001	1.7848	34.190458
 151	3.0200e-001	1.7975	34.335060
 152	3.0400e-001	1.8106	34.323009
 153	3.0600e-001	1.8221	34.436095
 154	3.0800e-001	1.8365	34.404580
 155	3.1000e-001	1.8486	34.335987
 156	3.1200e-001	1.8607	34.370283
 157	3.1400e-001	1.8707	34.424045
 158	3.1600e-001	1.8832	34.474100
 159	3.1800e-001	1.8964	34.566793
 160	3.2000e-001	1.9079	34.635386
 161	3.2200e-001	1.9183	34.460196
 162	3.2400e-001	1.9300	34.617775
 163	3.2600e-001	1.9423	34.609432
 164	3.2800e-001	1.9580	34.577917
 165	3.3000e-001	1.9677	34.607578
 166	3.3200e-001	1.9790	34.726226
 167	3.3400e-001	1.9923	34.799454
 168	3.3600e-001	2.0032	34.779061
 169	3.3800e-001	2.0150	34.747546
 170	3.4000e-001	2.0256	34.711395
 171	3.4200e-001	2.0396	34.825408
 172	3.4400e-001	2.0510	34.822627
 173	3.4600e-001	2.0625	34.887513
 174	3.4800e-001	2.0737	34.890294
 175	3.5000e-001	2.0863	34.895855
 176	3.5200e-001	2.1008	34.953325
 177	3.5400e-001	2.1105	34.982987
 178	3.5600e-001	2.1230	34.916248
 179	3.5800e-001	2.1326	34.925517
 180	3.6000e-001	2.1476	35.081242
 181	3.6200e-001	2.1561	35.191547
 182	3.6400e-001	2.1716	35.113685
 183	3.6600e-001	2.1841	35.019138
 184	3.6800e-001	2.1950	35.063630
 185	3.7000e-001	2.2079	35.141493
 186	3.7200e-001	2.2199	35.254579
 187	3.7400e-001	2.2323	35.043238
 188	3.7600e-001	2.2420	35.260141
 189	3.7800e-001	2.2559	35.238821
 190	3.8000e-001	2.2665	35.281460
 191	3.8200e-001	2.2799	35.189694
 192	3.8400e-001	2.2902	35.265702
 193	3.8600e-001	2.3038	35.260141
 194	3.8800e-001	2.3150	35.278679
 195	3.9000e-001	2.3263	35.401962
 196	3.9200e-001	2.3387	35.292583
 197	3.9400e-001	2.3502	35.444601
 198	3.9600e-001	2.3618	35.395473
 199	3.9800e-001	2.3759	35.476116
 200	4.0000e-001	2.3892	35.434404
 201	4.0200e-001	2.3994	35.388985
 202	4.0400e-001	2.4125	35.487240
 203	4.0600e-001	2.4236	35.528952
 204	4.0800e-001	2.4354	35.557687
 205	4.1000e-001	2.4442	35.402889
 206	4.1200e-001	2.4584	35.718973
 207	4.1400e-001	2.4718	35.630915
 208	4.1600e-001	2.4819	35.645746
 209	4.1800e-001	2.4964	35.661503
 210	4.2000e-001	2.5075	35.665211
 211	4.2200e-001	2.5204	35.620718
 212	4.2400e-001	2.5314	35.678188
 213	4.2600e-001	2.5419	35.748635
 214	4.2800e-001	2.5545	35.675407
 215	4.3000e-001	2.5661	35.878406
 216	4.3200e-001	2.5785	35.747708
 217	4.3400e-001	2.5871	35.816302
 218	4.3600e-001	2.6046	35.799617
 219	4.3800e-001	2.6144	35.757905
 220	4.4000e-001	2.6295	35.810740
 221	4.4200e-001	2.6384	35.815375
 222	4.4400e-001	2.6505	35.909922
 223	4.4600e-001	2.6649	35.877479
 224	4.4800e-001	2.6752	36.056378
 225	4.5000e-001	2.6881	35.877479
 226	4.5200e-001	2.6989	35.867283
 227	4.5400e-001	2.7124	35.938657
 228	4.5600e-001	2.7242	35.975734
 229	4.5800e-001	2.7353	35.986858
 230	4.6000e-001	2.7471	36.010958
 231	4.6200e-001	2.7603	36.073063
 232	4.6400e-001	2.7705	35.970173
 233	4.6600e-001	2.7843	36.180587
 234	4.6800e-001	2.7952	36.066574
 235	4.7000e-001	2.8086	36.093455
 236	4.7200e-001	2.8195	36.150925
 237	4.7400e-001	2.8326	36.137021
 238	4.7600e-001	2.8413	36.168537
 239	4.7800e-001	2.8564	36.182441
 240	4.8000e-001	2.8687	36.192637
 241	4.8200e-001	2.8806	36.263084
 242	4.8400e-001	2.8922	36.356705
 243	4.8600e-001	2.9046	36.309431
 244	4.8800e-001	2.9149	36.254742
 245	4.9000e-001	2.9269	36.292746
 246	4.9200e-001	2.9391	36.374316
 247	4.9400e-001	2.9507	36.322408
 248	4.9600e-001	2.9649	36.345581
 249	4.9800e-001	2.9760	36.375243
 250	5.0000e-001	2.9887	36.402124
 251	5.0200e-001	3.0021	36.501306
 252	5.0400e-001	2.9904	36.434567
 253	5.0600e-001	2.9749	36.369682
 254	5.0800e-001	2.9636	36.328897
 255	5.1000e-001	2.9487	36.259376
 256	5.1200e-001	2.9406	36.359485
 257	5.1400e-001	2.9272	36.323335
 258	5.1600e-001	2.9141	36.327970
 259	5.1800e-001	2.9044	36.397490
 260	5.2000e-001	2.8912	36.348362
 261	5.2200e-001	2.8809	36.271427
 262	5.2400e-001	2.8680	36.138875
 263	5.2600e-001	2.8551	36.236203
 264	5.2800e-001	2.8413	36.187076
 265	5.3000e-001	2.8291	36.157414
 266	5.3200e-001	2.8199	36.146290
 267	5.3400e-001	2.8085	36.234349
 268	5.3600e-001	2.7940	36.304796
 269	5.3800e-001	2.7813	36.191710
 270	5.4000e-001	2.7709	36.109213
 271	5.4200e-001	2.7590	36.150925
 272	5.4400e-001	2.7480	36.068428
 273	5.4600e-001	2.7357	36.035985
 274	5.4800e-001	2.7228	35.983150
 275	5.5000e-001	2.7116	36.022081
 276	5.5200e-001	2.6981	36.047108
 277	5.5400e-001	2.6865	36.207468
 278	5.5600e-001	2.6775	36.132386
 279	5.5800e-001	2.6648	36.026716
 280	5.6000e-001	2.6513	35.908995
 281	5.6200e-001	2.6379	35.985004
 282	5.6400e-001	2.6265	35.928461
 283	5.6600e-001	2.6157	35.948853
 284	5.6800e-001	2.6035	35.920118
 285	5.7000e-001	2.5903	36.052670
 286	5.7200e-001	2.5794	36.060085
 287	5.7400e-001	2.5674	35.899726
 288	5.7600e-001	2.5569	35.859867
 289	5.7800e-001	2.5413	35.857087
 290	5.8000e-001	2.5318	35.763466
 291	5.8200e-001	2.5178	35.819082
 292	5.8400e-001	2.5092	35.858941
 293	5.8600e-001	2.4940	35.910849
 294	5.8800e-001	2.4857	35.848744
 295	5.9000e-001	2.4707	35.919191
 296	5.9200e-001	2.4597	35.668919
 297	5.9400e-001	2.4447	35.767174
 298	5.9600e-001	2.4348	35.727316
 299	5.9800e-001	2.4232	35.701362
 300	6.0000e-001	2.4104	35.674481
 301	6.0200e-001	2.3979	35.770882
 302	6.0400e-001	2.3856	35.731950
 303	6.0600e-001	2.3740	35.682823
 304	6.0800e-001	2.3640	35.703215
 305	6.1000e-001	2.3507	35.572518
 306	6.1200e-001	2.3376	35.608668
 307	6.1400e-001	2.3272	35.565102
 308	6.1600e-001	2.3162	35.545637
 309	6.1800e-001	2.3015	35.594764
 310	6.2000e-001	2.2897	35.565102
 311	6.2200e-001	2.2772	35.489094
 312	6.2400e-001	2.2640	35.591983
 313	6.2600e-001	2.2583	35.631842
 314	6.2800e-001	2.2431	35.417720
 315	6.3000e-001	2.2310	35.476116
 316	6.3200e-001	2.2177	35.475190
 317	6.3400e-001	2.2080	35.527098
 318	6.3600e-001	2.1931	35.421427
 319	6.3800e-001	2.1842	35.375081
 320	6.4000e-001	2.1711	35.338003
 321	6.4200e-001	2.1563	35.506705
 322	6.4400e-001	2.1482	35.442747
 323	6.4600e-001	2.1351	35.405669
 324	6.4800e-001	2.1207	35.300926
 325	6.5000e-001	2.1105	35.319464
 326	6.5200e-001	2.0997	35.207305
 327	6.5400e-001	2.0853	35.253652
 328	6.5600e-001	2.0743	35.235113
 329	6.5800e-001	2.0656	35.195255
 330	6.6000e-001	2.0506	35.247164
 331	6.6200e-001	2.0391	35.379715
 332	6.6400e-001	2.0274	35.261068
 333	6.6600e-001	2.0146	35.190620
 334	6.6800e-001	2.0034	35.114612
 335	6.7000e-001	1.9912	35.158178
 336	6.7200e-001	1.9794	35.046019
 337	6.7400e-001	1.9659	35.114612
 338	6.7600e-001	1.9543	35.074754
 339	6.7800e-001	1.9426	35.162812
 340	6.8000e-001	1.9288	35.073827
 341	6.8200e-001	1.9196	35.053434
 342	6.8400e-001	1.9051	34.949617
 343	6.8600e-001	1.8939	34.923663
 344	6.8800e-001	1.8875	34.985768
 345	6.9000e-001	1.8710	35.146128
 346	6.9200e-001	1.8584	35.033968
 347	6.9400e-001	1.8449	34.942202
 348	6.9600e-001	1.8369	34.959814
 349	6.9800e-001	1.8237	34.824481
 350	7.0000e-001	1.8107	34.770719
 351	7.0200e-001	1.8003	34.857851
 352	7.0400e-001	1.7857	34.875463
 353	7.0600e-001	1.7732	34.883805
 354	7.0800e-001	1.7616	34.943129
 355	7.1000e-001	1.7500	34.786477
 356	7.1200e-001	1.7376	34.868974
 357	7.1400e-001	1.7251	34.774427
 358	7.1600e-001	1.7150	34.564939
 359	7.1800e-001	1.7025	34.702126
 360	7.2000e-001	1.6900	34.778134
 361	7.2200e-001	1.6763	34.720664
 362	7.2400e-001	1.6663	34.710468
 363	7.2600e-001	1.6540	34.697491
 364	7.2800e-001	1.6425	34.662268
 365	7.3000e-001	1.6319	34.596455
 366	7.3200e-001	1.6185	34.609432
 367	7.3400e-001	1.6064	34.488931
 368	7.3600e-001	1.5952	34.625190
 369	7.3800e-001	1.5827	34.578843
 370	7.4000e-001	1.5711	34.544547
 371	7.4200e-001	1.5569	34.526935
 372	7.4400e-001	1.5466	34.467611
 373	7.4600e-001	1.5365	34.494492
 374	7.4800e-001	1.5227	34.462050
 375	7.5000e-001	1.5112	34.497273
 376	7.5200e-001	1.4975	34.201581
 377	7.5400e-001	1.4864	34.414776
 378	7.5600e-001	1.4771	34.416630
 379	7.5800e-001	1.4616	34.327644
 380	7.6000e-001	1.4526	34.321156
 381	7.6200e-001	1.4384	34.419411
 382	7.6400e-001	1.4272	34.370283
 383	7.6600e-001	1.4140	34.282224
 384	7.6800e-001	1.4023	34.321156
 385	7.7000e-001	1.3889	34.011559
 386	7.7200e-001	1.3777	34.184896
 387	7.7400e-001	1.3669	34.243293
 388	7.7600e-001	1.3551	34.194165
 389	7.7800e-001	1.3438	34.204362
 390	7.8000e-001	1.3299	34.221974
 391	7.8200e-001	1.3185	34.174700
 392	7.8400e-001	1.3085	34.121865
 393	7.8600e-001	1.2942	34.109814
 394	7.8800e-001	1.2805	33.961505
 395	7.9000e-001	1.2699	34.068102
 396	7.9200e-001	1.2589	34.073664
 397	7.9400e-001	1.2483	34.022683
 398	7.9600e-001	1.2345	33.986532
 399	7.9800e-001	1.2234	34.131134
 400	8.0000e-001	1.2109	33.951309
 401	8.0200e-001	1.1965	33.986532
 402	8.0400e-001	1.1869	33.963359
 403	8.0600e-001	1.1755	33.922574
 404	8.0800e-001	1.1616	33.918866
 405	8.1000e-001	1.1512	33.862323
 406	8.1200e-001	1.1374	33.765922
 407	8.1400e-001	1.1259	33.876227
 408	8.1600e-001	1.1142	33.849346
 409	8.1800e-001	1.1024	33.851200
 410	8.2000e-001	1.0922	33.790022
 411	8.2200e-001	1.0796	33.705671
 412	8.2400e-001	1.0694	33.638931
 413	8.2600e-001	1.0564	33.636151
 414	8.2800e-001	1.0428	33.680644
 415	8.3000e-001	1.0287	33.605562
 416	8.3200e-001	1.0193	33.566631
 417	8.3400e-001	1.0062	33.752018
 418	8.3600e-001	0.9952	33.608343
 419	8.3800e-001	0.9839	33.575900
 420	8.4000e-001	0.9695	33.528626
 421	8.4200e-001	0.9579	33.537896
 422	8.4400e-001	0.9477	33.472083
 423	8.4600e-001	0.9369	33.528626
 424	8.4800e-001	0.9227	33.397001
 425	8.5000e-001	0.9097	33.374755
 426	8.5200e-001	0.8984	33.444275
 427	8.5400e-001	0.8883	33.445202
 428	8.5600e-001	0.8765	33.358997
 429	8.5800e-001	0.8630	33.233861
 430	8.6000e-001	0.8527	33.241276
 431	8.6200e-001	0.8396	33.294112
 432	8.6400e-001	0.8273	33.306162
 433	8.6600e-001	0.8130	33.186587
 434	8.6800e-001	0.8028	33.149510
 435	8.7000e-001	0.7906	33.177318
 436	8.7200e-001	0.7782	33.186587
 437	8.7400e-001	0.7683	33.133752
 438	8.7600e-001	0.7552	33.028081
 439	8.7800e-001	0.7431	33.035497
 440	8.8000e-001	0.7317	33.043839
 441	8.8200e-001	0.7203	33.006762
 442	8.8400e-001	0.7055	33.037351
 443	8.8600e-001	0.6958	32.835279
 444	8.8800e-001	0.6852	32.948365
 445	8.9000e-001	0.6693	32.829717
 446	8.9200e-001	0.6583	32.966904
 447	8.9400e-001	0.6469	32.793567
 448	8.9600e-001	0.6358	32.783371
 449	8.9800e-001	0.6219	32.801909
 450	9.0000e-001	0.6095	32.820448
 451	9.0200e-001	0.5992	32.650819
 452	9.0400e-001	0.5875	32.632280
 453	9.0600e-001	0.5758	32.609107
 454	9.0800e-001	0.5636	32.621157
 455	9.1000e-001	0.5508	32.566468
 456	9.1200e-001	0.5375	32.508071
 457	9.1400e-001	0.5257	32.407035
 458	9.1600e-001	0.5122	32.457089
 459	9.1800e-001	0.5000	32.391277
 460	9.2000e-001	0.4910	32.296730
 461	9.2200e-001	0.4786	32.199402
 462	9.2400e-001	0.4659	32.274483
 463	9.2600e-001	0.4545	32.229990
 464	9.2800e-001	0.4436	32.142858
 465	9.3000e-001	0.4305	31.995476
 466	9.3200e-001	0.4197	31.950983
 467	9.3400e-001	0.4063	32.048311
 468	9.3600e-001	0.3938	31.913906
 469	9.3800e-001	0.3837	31.830481
 470	9.4000e-001	0.3709	31.821212
 471	9.4200e-001	0.3568	31.765596
 472	9.4400e-001	0.3467	31.702564
 473	9.4600e-001	0.3302	31.641387
 474	9.4800e-001	0.3197	31.512543
 475	9.5000e-001	0.3104	31.320667
 476	9.5200e-001	0.2986	31.430046
 477	9.5400e-001	0.2866	31.264124
 478	9.5600e-001	0.2772	31.092641
 479	9.5800e-001	0.2629	30.832173
 480	9.6000e-001	0.2509	30.816415
 481	9.6200e-001	0.2382	30.736698
 482	9.6400e-001	0.2256	30.558727
 483	9.6600e-001	0.2155	30.256546
 484	9.6800e-001	0.2024	30.089698
 485	9.7000e-001	0.1883	29.895968
 486	9.7200e-001	0.1780	29.582664
 487	9.7400e-001	0.1676	29.328684
 488	9.7600e-001	0.1534	28.960691
 489	9.7800e-001	0.1411	28.682610
 490	9.8000e-001	0.1328	28.349841
 491	9.8200e-001	0.1176	27.977213
 492	9.8400e-001	0.1064	27.518380
 493	9.8600e-001	0.0922	27.029886
 494	9.8800e-001	0.0842	26.394935
 495	9.9000e-001	0.0700	25.960203
 496	9.9200e-001	0.0576	25.310421
 497	9.9400e-001	0.0455	24.731087
 498	9.9600e-001	0.0340	24.219419
 499	9.9800e-001	0.0211	23.546464
 500	1.0000e+000	0.0097	22.808624
 501	1.0020e+000	0.0011	22.122692
 502	1.0040e+000	-0.0139	21.526673
 503	1.0060e+000	-0.0247	20.590469
 504	1.0080e+000	-0.0356	19.928637
 505	1.0100e+000	-0.0480	19.140742
 506	1.0120e+000	-0.0574	18.450176
 507	1.0140e+000	-0.0729	17.613154
 508	1.0160e+000	-0.0835	16.767789
 509	1.0180e+000	-0.0981	15.971552
 510	1.0200e+000	-0.1076	15.126187
 511	1.0220e+000	-0.1228	14.333658
 512	1.0240e+000	-0.1331	13.387257
 513	1.0260e+000	-0.1437	12.679079
 514	1.0280e+000	-0.1560	11.718775
 515	1.0300e+000	-0.1686	10.865068
 516	1.0320e+000	-0.1806	10.146693
 517	1.0340e+000	-0.1939	9.322648
 518	1.0360e+000	-0.2042	8.483772
 519	1.0380e+000	-0.2153	7.655092
 520	1.0400e+000	-0.2286	6.950621
 521	1.0420e+000	-0.2391	5.936555
 522	1.0440e+000	-0.2530	5.182957
 523	1.0460e+000	-0.2652	4.411747
 524	1.0480e+000	-0.2777	3.620144
 525	1.0500e+000	-0.2883	3.120526
 526	1.0520e+000	-0.3012	2.306678
 527	1.0540e+000	-0.3130	1.566057
 528	1.0560e+000	-0.3251	0.780943
 529	1.0580e+000	-0.3364	0.084815
 530	1.0600e+000	-0.3483	-0.847682
 531	1.0620e+000	-0.3602	-1.318565
 532	1.0640e+000	-0.3728	-1.966492
 533	1.0660e+000	-0.3853	-2.647790
 534	1.0680e+000	-0.3979	-3.175216
 535	1.0700e+000	-0.4090	-3.680395
 536	1.0720e+000	-0.4202	-4.461801
 537	1.0740e+000	-0.4341	-5.079140
 538	1.0760e+000	-0.4447	-5.632520
 539	1.0780e+000	-0.4569	-6.314744
 540	1.0800e+000	-0.4675	-6.704984
 541	1.0820e+000	-0.4842	-7.161036
 542	1.0840e+000	-0.4929	-7.697731
 543	1.0860e+000	-0.5051	-8.049039
